Wavelength	Optical power
nm	dBm
1521	-82.3
1521.07	-82.22
1521.14	-85.77
1521.21	-82.38
1521.28	-82.12
1521.35	-80.86
1521.42	-81.63
1521.49	-81.78
1521.56	-94.96
1521.63	-82.4
1521.7	-81.71
1521.77	-81.51
1521.84	-83.2
1521.91	-84.81
1521.98	-82.25
1522.05	-81.15
1522.12	-79.69
1522.19	-80.71
1522.26	-84.41
1522.33	-82.56
1522.4	-84.2
1522.47	-80.91
1522.54	-80.62
1522.61	-83.33
1522.68	-82.74
1522.75	-82.61
1522.82	-82.11
1522.89	-82.31
1522.96	-81.67
1523.03	-85.76
1523.1	-81.41
1523.17	-82.73
1523.24	-81.33
1523.31	-82.46
1523.38	-82.71
1523.45	-80.3
1523.52	-81.18
1523.59	-79.12
1523.66	-83.84
1523.73	-79.24
1523.8	-81.93
1523.87	-81.24
1523.94	-87.6
1524.01	-82.67
1524.08	-79.52
1524.15	-83.06
1524.22	-84.38
1524.29	-82.11
1524.36	-83.85
1524.43	-80.93
1524.5	-80.37
1524.57	-82.71
1524.64	-81.98
1524.71	-83.06
1524.78	-80.65
1524.85	-85.53
1524.92	-81.2
1524.99	-86.17
1525.06	-84.24
1525.13	-83.93
1525.2	-81.36
1525.27	-81.71
1525.34	-83.02
1525.41	-80.7
1525.48	-79.68
1525.55	-79.91
1525.62	-81.49
1525.69	-84.89
1525.76	-95.14
1525.83	-82.12
1525.9	-80.37
1525.97	-82.05
1526.04	-81.51
1526.11	-79.97
1526.18	-81.78
1526.25	-80.3
1526.32	-81.61
1526.39	-81.84
1526.46	-83.63
1526.53	-81.92
1526.6	-84.07
1526.67	-85.04
1526.74	-79.63
1526.81	-82.31
1526.88	-82.08
1526.95	-80.75
1527.02	-82.19
1527.09	-83.73
1527.16	-79.82
1527.23	-120
1527.3	-83.31
1527.37	-81.1
1527.44	-79.51
1527.51	-80.23
1527.58	-81.06
1527.65	-81.59
1527.72	-83.6
1527.79	-84.02
1527.86	-80.47
1527.93	-82.33
1528	-81.56
1528.07	-81.03
1528.14	-84.08
1528.21	-79.88
1528.28	-82.35
1528.35	-82.35
1528.42	-81.94
1528.49	-83.82
1528.56	-84.53
1528.63	-88.39
1528.7	-79.14
1528.77	-87.12
1528.84	-81.28
1528.91	-82.98
1528.98	-85.09
1529.05	-82.66
1529.12	-84.33
1529.19	-82.49
1529.26	-82.12
1529.33	-82.24
1529.4	-80.75
1529.47	-81.22
1529.54	-82.11
1529.61	-79.9
1529.68	-81.34
1529.75	-80.58
1529.82	-80.91
1529.89	-81.44
1529.96	-84.7
1530.03	-83.54
1530.1	-80.97
1530.17	-83.77
1530.24	-82.93
1530.31	-80.52
1530.38	-81.59
1530.45	-83.28
1530.52	-81.87
1530.59	-82.44
1530.66	-78.86
1530.73	-89.14
1530.8	-80.37
1530.87	-83.29
1530.94	-80.51
1531.01	-79.39
1531.08	-80.8
1531.15	-81.27
1531.22	-79.52
1531.29	-81.61
1531.36	-81.31
1531.43	-80.19
1531.5	-80.89
1531.57	-81.63
1531.64	-85.42
1531.71	-81.89
1531.78	-79.98
1531.85	-79.55
1531.92	-83.1
1531.99	-83.98
1532.06	-79.81
1532.13	-82
1532.2	-84.02
1532.27	-82.16
1532.34	-82.31
1532.41	-80.84
1532.48	-80.68
1532.55	-82.28
1532.62	-81.67
1532.69	-80.14
1532.76	-79.4
1532.83	-84.88
1532.9	-81.55
1532.97	-82.73
1533.04	-80.78
1533.11	-83.71
1533.18	-81.46
1533.25	-80.71
1533.32	-81.68
1533.39	-80.61
1533.46	-80.24
1533.53	-78.21
1533.6	-80.59
1533.67	-81.83
1533.74	-82.33
1533.81	-80.03
1533.88	-79.52
1533.95	-79.43
1534.02	-80.34
1534.09	-80.03
1534.16	-80.03
1534.23	-79.14
1534.3	-80.72
1534.37	-78.02
1534.44	-81.27
1534.51	-80.02
1534.58	-80.04
1534.65	-80.14
1534.72	-79.03
1534.79	-79.33
1534.86	-78.72
1534.93	-78.61
1535	-78.41
1535.07	-77.89
1535.14	-78.76
1535.21	-78.12
1535.28	-77.88
1535.35	-76.91
1535.42	-77.26
1535.49	-77
1535.56	-77.3
1535.63	-77.63
1535.7	-77.02
1535.77	-76.41
1535.84	-76.47
1535.91	-76.72
1535.98	-76.4
1536.05	-76.3
1536.12	-76.69
1536.19	-76.34
1536.26	-75.72
1536.33	-74.91
1536.4	-74.9
1536.47	-75.81
1536.54	-74.76
1536.61	-74.93
1536.68	-75.13
1536.75	-75.13
1536.82	-74.76
1536.89	-74.2
1536.96	-75.22
1537.03	-74.22
1537.1	-75.42
1537.17	-74.94
1537.24	-74.65
1537.31	-74.77
1537.38	-74.38
1537.45	-73.81
1537.52	-73.62
1537.59	-73.41
1537.66	-73.32
1537.73	-73.38
1537.8	-73.4
1537.87	-73.29
1537.94	-73.37
1538.01	-73.02
1538.08	-73.55
1538.15	-73.27
1538.22	-73.54
1538.29	-73.09
1538.36	-72.86
1538.43	-72.84
1538.5	-72.3
1538.57	-71.97
1538.64	-71.54
1538.71	-71.05
1538.78	-71.33
1538.85	-71.33
1538.92	-71.51
1538.99	-71.35
1539.06	-71.23
1539.13	-71.25
1539.2	-71.25
1539.27	-71.17
1539.34	-71.04
1539.41	-70.72
1539.48	-70.48
1539.55	-69.91
1539.62	-69.6
1539.69	-69.22
1539.76	-69.11
1539.83	-68.94
1539.9	-69
1539.97	-68.96
1540.04	-69.02
1540.11	-69.14
1540.18	-69.03
1540.25	-69
1540.32	-68.7
1540.39	-68.66
1540.46	-68.45
1540.53	-68.12
1540.6	-67.68
1540.67	-67.2
1540.74	-66.8
1540.81	-66.42
1540.88	-66.23
1540.95	-66.21
1541.02	-66.18
1541.09	-66.41
1541.16	-66.51
1541.23	-66.5
1541.3	-66.54
1541.37	-66.41
1541.44	-66.45
1541.51	-66.27
1541.58	-65.9
1541.65	-65.71
1541.72	-65.19
1541.79	-64.78
1541.86	-64.32
1541.93	-64.06
1542	-63.89
1542.07	-63.89
1542.14	-63.96
1542.21	-64.09
1542.28	-64.24
1542.35	-64.37
1542.42	-64.45
1542.49	-64.42
1542.56	-64.29
1542.63	-64.18
1542.7	-63.94
1542.77	-63.58
1542.84	-63.15
1542.91	-62.75
1542.98	-62.44
1543.05	-62.22
1543.12	-62.27
1543.19	-62.36
1543.26	-62.58
1543.33	-62.86
1543.4	-63.03
1543.47	-63.1
1543.54	-63.15
1543.61	-63.13
1543.68	-63.12
1543.75	-62.9
1543.82	-62.62
1543.89	-62.29
1543.96	-61.89
1544.03	-61.56
1544.1	-61.36
1544.17	-61.3
1544.24	-61.43
1544.31	-61.72
1544.38	-61.98
1544.45	-62.25
1544.52	-62.45
1544.59	-62.56
1544.66	-62.63
1544.73	-62.53
1544.8	-62.44
1544.87	-62.17
1544.94	-61.86
1545.01	-61.5
1545.08	-61.02
1545.15	-60.65
1545.22	-60.58
1545.29	-60.73
1545.36	-61.13
1545.43	-61.54
1545.5	-62
1545.57	-62.33
1545.64	-62.51
1545.71	-62.69
1545.78	-62.71
1545.85	-62.63
1545.92	-62.45
1545.99	-62.19
1546.06	-61.79
1546.13	-61.23
1546.2	-60.66
1546.27	-60.25
1546.34	-60.16
1546.41	-60.39
1546.48	-60.84
1546.55	-61.36
1546.62	-61.83
1546.69	-62.21
1546.76	-62.42
1546.83	-62.63
1546.9	-62.66
1546.97	-62.61
1547.04	-62.48
1547.11	-62.15
1547.18	-61.73
1547.25	-61.16
1547.32	-60.64
1547.39	-60.25
1547.46	-60.25
1547.53	-60.52
1547.6	-61.1
1547.67	-61.6
1547.74	-62.06
1547.81	-62.45
1547.88	-62.68
1547.95	-62.77
1548.02	-62.76
1548.09	-62.77
1548.16	-62.58
1548.23	-62.29
1548.3	-61.8
1548.37	-61.21
1548.44	-60.65
1548.51	-60.29
1548.58	-60.3
1548.65	-60.67
1548.72	-61.11
1548.79	-61.67
1548.86	-62.12
1548.93	-62.44
1549	-62.63
1549.07	-62.79
1549.14	-62.79
1549.21	-62.66
1549.28	-62.45
1549.35	-62.13
1549.42	-61.52
1549.49	-60.89
1549.56	-60.36
1549.63	-60.16
1549.7	-60.33
1549.77	-60.74
1549.84	-61.29
1549.91	-61.86
1549.98	-62.25
1550.05	-62.55
1550.12	-62.81
1550.19	-62.84
1550.26	-62.81
1550.33	-62.66
1550.4	-62.43
1550.47	-62
1550.54	-61.49
1550.61	-60.8
1550.68	-60.21
1550.75	-59.96
1550.82	-60.03
1550.89	-60.49
1550.96	-61.07
1551.03	-61.54
1551.1	-61.93
1551.17	-62.24
1551.24	-62.44
1551.31	-62.45
1551.38	-62.41
1551.45	-62.24
1551.52	-61.93
1551.59	-61.43
1551.66	-60.82
1551.73	-60.11
1551.8	-59.44
1551.87	-59.19
1551.94	-59.39
1552.01	-59.91
1552.08	-60.58
1552.15	-61.11
1552.22	-61.59
1552.29	-61.96
1552.36	-62.14
1552.43	-62.16
1552.5	-62.16
1552.57	-62.01
1552.64	-61.68
1552.71	-61.26
1552.78	-60.64
1552.85	-59.94
1552.92	-59.18
1552.99	-58.84
1553.06	-58.9
1553.13	-59.32
1553.2	-59.99
1553.27	-60.58
1553.34	-61.02
1553.41	-61.44
1553.48	-61.73
1553.55	-61.79
1553.62	-61.77
1553.69	-61.73
1553.76	-61.39
1553.83	-60.96
1553.9	-60.25
1553.97	-59.21
1554.04	-58
1554.11	-56.91
1554.18	-56.42
1554.25	-56.86
1554.32	-57.94
1554.39	-59.12
1554.46	-60.24
1554.53	-61.07
1554.6	-61.73
1554.67	-62.21
1554.74	-62.6
1554.81	-62.87
1554.88	-63.03
1554.95	-63.11
1555.02	-63.26
1555.09	-63.18
1555.16	-63.07
1555.23	-62.98
1555.3	-62.8
1555.37	-62.44
1555.44	-61.97
1555.51	-61.27
1555.58	-60.15
1555.65	-58.18
1555.72	-52.87
1555.79	-37.39
1555.86	-17.2
1555.93	-39.85
1556	-53.82
1556.07	-57.78
1556.14	-59.55
1556.21	-60.76
1556.28	-61.45
1556.35	-61.92
1556.42	-62.22
1556.49	-62.29
1556.56	-62.32
1556.63	-62.08
1556.7	-61.83
1556.77	-61.33
1556.84	-60.54
1556.91	-59.46
1556.98	-57.89
1557.05	-55.75
1557.12	-53.65
1557.19	-53.39
1557.26	-54.99
1557.33	-57.06
1557.4	-58.72
1557.47	-59.84
1557.54	-60.59
1557.61	-61.1
1557.68	-61.31
1557.75	-61.35
1557.82	-61.27
1557.89	-60.98
1557.96	-60.42
1558.03	-59.67
1558.1	-58.79
1558.17	-57.29
1558.24	-55.75
1558.31	-54.53
1558.38	-54.56
1558.45	-55.83
1558.52	-57.37
1558.59	-58.59
1558.66	-59.55
1558.73	-60.18
1558.8	-60.54
1558.87	-60.7
1558.94	-60.66
1559.01	-60.44
1559.08	-60.08
1559.15	-59.46
1559.22	-58.63
1559.29	-57.42
1559.36	-56.09
1559.43	-54.92
1559.5	-54.6
1559.57	-55.34
1559.64	-56.5
1559.71	-57.83
1559.78	-58.8
1559.85	-59.42
1559.92	-59.87
1559.99	-60.05
1560.06	-60.07
1560.13	-59.91
1560.2	-59.56
1560.27	-58.96
1560.34	-58.09
1560.41	-56.96
1560.48	-55.5
1560.55	-54.28
1560.62	-53.86
1560.69	-54.6
1560.76	-55.9
1560.83	-57.23
1560.9	-58.34
1560.97	-59.01
1561.04	-59.51
1561.11	-59.75
1561.18	-59.8
1561.25	-59.67
1561.32	-59.39
1561.39	-58.89
1561.46	-58.11
1561.53	-57.08
1561.6	-55.78
1561.67	-54.48
1561.74	-53.88
1561.81	-54.31
1561.88	-55.5
1561.95	-56.78
1562.02	-57.96
1562.09	-58.74
1562.16	-59.27
1562.23	-59.6
1562.3	-59.65
1562.37	-59.55
1562.44	-59.24
1562.51	-58.75
1562.58	-58
1562.65	-56.94
1562.72	-55.73
1562.79	-54.4
1562.86	-53.85
1562.93	-54.33
1563	-55.53
1563.07	-56.83
1563.14	-57.98
1563.21	-58.81
1563.28	-59.43
1563.35	-59.71
1563.42	-59.85
1563.49	-59.77
1563.56	-59.51
1563.63	-59.08
1563.7	-58.32
1563.77	-57.27
1563.84	-55.91
1563.91	-54.52
1563.98	-53.59
1564.05	-53.94
1564.12	-55.18
1564.19	-56.72
1564.26	-57.96
1564.33	-58.91
1564.4	-59.59
1564.47	-59.97
1564.54	-60.17
1564.61	-60.14
1564.68	-59.98
1564.75	-59.51
1564.82	-58.91
1564.89	-57.94
1564.96	-56.74
1565.03	-55.36
1565.1	-54.2
1565.17	-54.2
1565.24	-55.31
1565.31	-56.69
1565.38	-58.01
1565.45	-59.11
1565.52	-59.84
1565.59	-60.3
1565.66	-60.51
1565.73	-60.6
1565.8	-60.42
1565.87	-60.07
1565.94	-59.54
1566.01	-58.68
1566.08	-57.49
1566.15	-56.3
1566.22	-55.37
1566.29	-55.23
1566.36	-56.13
1566.43	-57.54
1566.5	-58.74
1566.57	-59.77
1566.64	-60.49
1566.71	-61.02
1566.78	-61.31
1566.85	-61.38
1566.92	-61.27
1566.99	-60.97
1567.06	-60.46
1567.13	-59.6
1567.2	-58.58
1567.27	-57.42
1567.34	-56.44
1567.41	-56.3
1567.48	-57.14
1567.55	-58.42
1567.62	-59.61
1567.69	-60.66
1567.76	-61.56
1567.83	-62.07
1567.9	-62.48
1567.97	-62.56
1568.04	-62.56
1568.11	-62.3
1568.18	-61.86
1568.25	-61.13
1568.32	-60.15
1568.39	-59.01
1568.46	-57.97
1568.53	-57.68
1568.6	-58.41
1568.67	-59.72
1568.74	-60.97
1568.81	-62.07
1568.88	-62.97
1568.95	-63.54
1569.02	-63.96
1569.09	-64.14
1569.16	-64.15
1569.23	-63.95
1569.3	-63.5
1569.37	-62.8
1569.44	-61.88
1569.51	-60.6
1569.58	-59.38
1569.65	-58.97
1569.72	-59.58
1569.79	-60.97
1569.86	-62.34
1569.93	-63.56
1570	-64.52
1570.07	-65.19
1570.14	-65.63
1570.21	-65.93
1570.28	-65.94
1570.35	-65.76
1570.42	-65.46
1570.49	-64.88
1570.56	-64.1
1570.63	-62.9
1570.7	-61.7
1570.77	-60.92
1570.84	-61.09
1570.91	-62.22
1570.98	-63.63
1571.05	-65.01
1571.12	-65.87
1571.19	-66.68
1571.26	-67.1
1571.33	-67.33
1571.4	-67.59
1571.47	-67.41
1571.54	-67.19
1571.61	-66.74
1571.68	-65.98
1571.75	-64.98
1571.82	-63.83
1571.89	-62.9
1571.96	-62.76
1572.03	-63.6
1572.1	-64.97
1572.17	-66.19
1572.24	-67.2
1572.31	-68.02
1572.38	-68.45
1572.45	-68.73
1572.52	-68.75
1572.59	-68.66
1572.66	-68.7
1572.73	-68.12
1572.8	-67.48
1572.87	-66.6
1572.94	-65.47
1573.01	-64.49
1573.08	-64.05
1573.15	-64.72
1573.22	-65.96
1573.29	-67.15
1573.36	-68.15
1573.43	-68.93
1573.5	-69.41
1573.57	-69.72
1573.64	-69.89
1573.71	-70.08
1573.78	-70.05
1573.85	-69.33
1573.92	-68.98
1573.99	-68.15
1574.06	-66.9
1574.13	-65.65
1574.2	-64.95
1574.27	-65.23
1574.34	-66.35
1574.41	-67.65
1574.48	-68.6
1574.55	-69.46
1574.62	-70.15
1574.69	-70.62
1574.76	-70.82
1574.83	-70.67
1574.9	-70.5
1574.97	-70.28
1575.04	-69.7
1575.11	-69.22
1575.18	-68.07
1575.25	-66.88
1575.32	-66.02
1575.39	-65.85
1575.46	-66.7
1575.53	-67.9
1575.6	-69.01
1575.67	-69.71
1575.74	-70.36
1575.81	-71.13
1575.88	-71.2
1575.95	-71.02
1576.02	-71.16
1576.09	-70.87
1576.16	-70.53
1576.23	-69.78
1576.3	-69.01
1576.37	-67.95
1576.44	-66.84
1576.51	-66.38
1576.58	-66.92
1576.65	-67.89
1576.72	-69.09
1576.79	-69.78
1576.86	-70.47
1576.93	-71.05
1577	-71.33
1577.07	-71.74
1577.14	-71.71
1577.21	-71.11
1577.28	-71.01
1577.35	-70.58
1577.42	-69.84
1577.49	-68.84
1577.56	-67.73
1577.63	-66.98
1577.7	-67
1577.77	-67.93
1577.84	-68.95
1577.91	-69.71
1577.98	-70.44
1578.05	-71.28
1578.12	-71.64
1578.19	-71.65
1578.26	-71.92
1578.33	-71.91
1578.4	-71.49
1578.47	-71.07
1578.54	-70.49
1578.61	-69.54
1578.68	-68.7
1578.75	-67.7
1578.82	-67.38
1578.89	-67.92
1578.96	-68.8
1579.03	-69.58
1579.1	-70.48
1579.17	-71.22
1579.24	-71.65
1579.31	-71.69
1579.38	-72.31
1579.45	-71.69
1579.52	-71.59
1579.59	-71.6
1579.66	-70.9
1579.73	-70.18
1579.8	-69.54
1579.87	-68.56
1579.94	-67.88
1580.01	-67.79
1580.08	-68.54
1580.15	-69.6
1580.22	-70.3
1580.29	-71.01
1580.36	-71.64
1580.43	-72.13
1580.5	-71.87
1580.57	-71.92
1580.64	-72.11
1580.71	-72.14
1580.78	-71.4
1580.85	-70.85
1580.92	-70.09
1580.99	-69.12
1581.06	-68.63
1581.13	-68.27
1581.2	-68.65
1581.27	-69.13
1581.34	-70.19
1581.41	-71.03
1581.48	-71.64
1581.55	-71.98
1581.62	-72.37
1581.69	-72.38
1581.76	-72.45
1581.83	-71.88
1581.9	-71.81
1581.97	-71.33
1582.04	-70.89
1582.11	-69.92
1582.18	-69.09
1582.25	-68.69
1582.32	-68.7
1582.39	-69.3
1582.46	-70.12
1582.53	-70.9
1582.6	-71.36
1582.67	-72.18
1582.74	-72.38
1582.81	-72.51
1582.88	-72.28
1582.95	-72.57
1583.02	-72.09
1583.09	-71.98
1583.16	-71.52
1583.23	-70.72
1583.3	-69.83
1583.37	-69.24
1583.44	-69.07
1583.51	-69.24
1583.58	-69.87
1583.65	-70.97
1583.72	-71.45
1583.79	-71.81
1583.86	-71.88
1583.93	-72.07
1584	-72.83
1584.07	-72.49
1584.14	-72.35
1584.21	-72.28
1584.28	-71.98
1584.35	-71.29
1584.42	-70.77
1584.49	-70.19
1584.56	-69.55
1584.63	-69.39
1584.7	-69.91
1584.77	-70.5
1584.84	-71.23
1584.91	-71.76
1584.98	-72.31
1585.05	-72.36
1585.12	-72.47
1585.19	-72.76
1585.26	-72.61
1585.33	-72.54
1585.4	-71.98
1585.47	-71.59
1585.54	-71.27
1585.61	-70.67
1585.68	-70.04
1585.75	-69.82
1585.82	-70.04
1585.89	-70.28
1585.96	-71.23
1586.03	-71.64
1586.1	-71.84
1586.17	-72.76
1586.24	-72.69
1586.31	-72.87
1586.38	-72.79
1586.45	-72.99
1586.52	-72.21
1586.59	-72.12
1586.66	-71.8
1586.73	-71.06
1586.8	-70.67
1586.87	-70.18
1586.94	-70.01
1587.01	-70.36
1587.08	-70.57
1587.15	-71.29
1587.22	-71.84
1587.29	-71.97
1587.36	-72.55
1587.43	-72.62
1587.5	-72.89
1587.57	-72.89
1587.64	-72.94
1587.71	-72.59
1587.78	-72.21
1587.85	-71.67
1587.92	-71.2
1587.99	-70.98
1588.06	-70.48
1588.13	-70.34
1588.2	-70.73
1588.27	-71.12
1588.34	-71.82
1588.41	-72.2
1588.48	-73.04
1588.55	-72.35
1588.62	-72.66
1588.69	-72.77
1588.76	-73.04
1588.83	-72.96
1588.9	-72.48
1588.97	-72.59
1589.04	-71.88
1589.11	-71.23
1589.18	-70.98
1589.25	-70.89
1589.32	-70.66
1589.39	-71.34
1589.46	-71.56
1589.53	-72
1589.6	-72.43
1589.67	-72.77
1589.74	-72.82
1589.81	-72.7
1589.88	-73.08
1589.95	-72.92
1590.02	-72.97
1590.09	-72.67
1590.16	-72.27
1590.23	-72.16
1590.3	-71.59
1590.37	-71.2
1590.44	-70.98
1590.51	-70.98
1590.58	-71.32
1590.65	-71.77
1590.72	-72.47
1590.79	-72.54
1590.86	-72.83
1590.93	-73.37
1591	-73.75
