Wavelength	Optical power
nm	dBm
600	0
602.304	-120
604.608	-120
606.913	-120
609.217	-120
611.521	-120
613.825	-120
616.129	-120
618.434	-120
620.738	-120
623.042	-120
625.346	-120
627.65	-120
629.955	-120
632.259	-120
634.563	-120
636.867	-120
639.171	-120
641.476	-120
643.78	-120
646.084	-120
648.388	-120
650.692	-120
652.997	-120
655.301	-120
657.605	-120
659.909	-120
662.213	-120
664.518	-120
666.822	-120
669.126	-120
671.43	-120
673.734	-120
676.039	-120
678.343	-120
680.647	-120
682.951	-120
685.255	-120
687.56	-120
689.864	-120
692.168	-120
694.472	-120
696.776	-120
699.081	-120
701.385	-120
703.689	-120
705.993	-120
708.297	-120
710.602	-120
712.906	-120
715.21	-120
717.514	-120
719.818	-120
722.123	-120
724.427	-120
726.731	-120
729.035	-120
731.339	-120
733.644	-120
735.948	-120
738.252	-120
740.556	-120
742.86	-83.69
745.165	-120
747.469	-120
749.773	-120
752.077	-120
754.381	-79.55
756.686	-80.76
758.99	-120
761.294	-84.19
763.598	-120
765.902	-120
768.207	-120
770.511	-90.18
772.815	-120
775.119	-85.16
777.423	-120
779.728	-120
782.032	-120
784.336	-78.32
786.64	-81.72
788.944	-120
791.249	-82.71
793.553	-84.82
795.857	-81.83
798.161	-86.09
800.465	-120
802.77	-120
805.074	-120
807.378	-120
809.682	-80.46
811.986	-76.78
814.291	-86.31
816.595	-81.25
818.899	-78.96
821.203	-77.95
823.507	-77.1
825.812	-120
828.116	-79.59
830.42	-79.84
832.724	-120
835.028	-84.42
837.333	-83.21
839.637	-120
841.941	-81.48
844.245	-120
846.549	-83.92
848.854	-82.82
851.158	-83.14
853.462	-77.22
855.766	-84.49
858.07	-77.54
860.375	-78.59
862.679	-120
864.983	-120
867.287	-83.62
869.591	-87.02
871.896	-93.38
874.2	-120
876.504	-79.98
878.808	-86.49
881.112	-86.07
883.417	-83.3
885.721	-79.22
888.025	-80.65
890.329	-88.27
892.633	-81.67
894.938	-80.45
897.242	-120
899.546	-120
901.85	-80.25
904.154	-83.38
906.459	-84.17
908.763	-85.8
911.067	-82.38
913.371	-83.27
915.675	-85.12
917.98	-82.83
920.284	-85.47
922.588	-82.37
924.892	-82.38
927.196	-81.02
929.501	-82.32
931.805	-81.38
934.109	-82.72
936.413	-82.34
938.717	-82.58
941.022	-81.56
943.326	-82.74
945.63	-83.15
947.934	-82.85
950.238	-82.43
952.543	-82.25
954.847	-82.98
957.151	-83.55
959.455	-83.15
961.759	-84.34
964.064	-83
966.368	-82.99
968.672	-83.08
970.976	-83.73
973.28	-84.16
975.585	-83.26
977.889	-82.37
980.193	-83.44
982.497	-83.44
984.801	-82.97
987.106	-82.58
989.41	-82.43
991.714	-82.2
994.018	-82.34
996.322	-82.41
998.627	-82.18
1000.93	-81.36
1003.23	-81.65
1005.54	-81.25
1007.84	-80.81
1010.15	-81.51
1012.45	-81.31
1014.76	-81.87
1017.06	-80.71
1019.36	-80.44
1021.67	-80.05
1023.97	-80.16
1026.28	-79.88
1028.58	-79.38
1030.89	-79.48
1033.19	-79.03
1035.49	-79.34
1037.8	-79.07
1040.1	-79.21
1042.41	-79.45
1044.71	-80.11
1047.01	-79.44
1049.32	-79.71
1051.62	-79.42
1053.93	-80.31
1056.23	-80.2
1058.54	-80.52
1060.84	-80.23
1063.14	-79.76
1065.45	-80.03
1067.75	-81.25
1070.06	-80.22
1072.36	-81.4
1074.67	-81.73
1076.97	-81.17
1079.27	-80.85
1081.58	-80.75
1083.88	-81.67
1086.19	-81.29
1088.49	-81.67
1090.79	-81.66
1093.1	-82.12
1095.4	-81.86
1097.71	-81.04
1100.01	-82.28
1102.32	-81.91
1104.62	-81.57
1106.92	-80.89
1109.23	-82.92
1111.53	-82.67
1113.84	-82.33
1116.14	-81.02
1118.44	-82.82
1120.75	-82.5
1123.05	-83.33
1125.36	-83.76
1127.66	-83.11
1129.97	-83.7
1132.27	-82.56
1134.57	-83.75
1136.88	-83.69
1139.18	-86.63
1141.49	-84.77
1143.79	-86.62
1146.1	-85.85
1148.4	-87.2
1150.7	-91.77
1153.01	-120
1155.31	-88.56
1157.62	-88.36
1159.92	-89.67
1162.22	-88.87
1164.53	-93.36
1166.83	-92.34
1169.14	-96.6
1171.44	-89.79
1173.75	-88.56
1176.05	-87.45
1178.35	-88.85
1180.66	-90.48
1182.96	-120
1185.27	-90.87
1187.57	-92.06
1189.88	-95.24
1192.18	-120
1194.48	-120
1196.79	-120
1199.09	-86.12
1201.4	-106.05
1203.7	-93.23
1206	-96.7
1208.31	-102.32
1210.61	-88.16
1212.92	-92.21
1215.22	-87.75
1217.53	-87.06
1219.83	-94.7
1222.13	-90.39
1224.44	-92.17
1226.74	-92.23
1229.05	-88.3
1231.35	-88.33
1233.65	-90.51
1235.96	-87.5
1238.26	-96.64
1240.57	-93.17
1242.87	-96.99
1245.18	-120
1247.48	-120
1249.78	-120
1252.09	-99.78
1254.39	-120
1256.7	-120
1259	-120
1261.31	-89.9
1263.61	-89.58
1265.91	-101.44
1268.22	-93.89
1270.52	-94.31
1272.83	-93.61
1275.13	-99.59
1277.43	-94.52
1279.74	-89.47
1282.04	-91.56
1284.35	-88.23
1286.65	-91.37
1288.96	-89.68
1291.26	-91.59
1293.56	-89.61
1295.87	-90.34
1298.17	-89.36
1300.48	-87.42
1302.78	-91.79
1305.09	-89.97
1307.39	-88.15
1309.69	-88.2
1312	-88.54
1314.3	-92.78
1316.61	-120
1318.91	-94.69
1321.21	-120
1323.52	-120
1325.82	-120
1328.13	-120
1330.43	-93.69
1332.74	-120
1335.04	-91.89
1337.34	-98.72
1339.65	-101.51
1341.95	-119.57
1344.26	-100.25
1346.56	-98.29
1348.86	-92.57
1351.17	-120
1353.47	-120
1355.78	-90.28
1358.08	-120
1360.39	-89.67
1362.69	-120
1364.99	-120
1367.3	-120
1369.6	-120
1371.91	-120
1374.21	-120
1376.52	-120
1378.82	-120
1381.12	-120
1383.43	-120
1385.73	-100.39
1388.04	-120
1390.34	-93.07
1392.64	-97.62
1394.95	-93.86
1397.25	-104.67
1399.56	-120
1401.86	-120
1404.17	-120
1406.47	-120
1408.77	-120
1411.08	-120
1413.38	-96.38
1415.69	-120
1417.99	-120
1420.3	-120
1422.6	-120
1424.9	-96.25
1427.21	-93.64
1429.51	-120
1431.82	-97.86
1434.12	-88.77
1436.42	-92.01
1438.73	-96.78
1441.03	-93.99
1443.34	-92.65
1445.64	-93.4
1447.95	-120
1450.25	-90.81
1452.55	-120
1454.86	-98.16
1457.16	-120
1459.47	-92.92
1461.77	-120
1464.07	-120
1466.38	-93.83
1468.68	-120
1470.99	-100.69
1473.29	-120
1475.6	-93.83
1477.9	-120
1480.2	-98.26
1482.51	-120
1484.81	-120
1487.12	-120
1489.42	-93.99
1491.73	-93.17
1494.03	-90.42
1496.33	-97.89
1498.64	-92.14
1500.94	-93.66
1503.25	-93.69
1505.55	-120
1507.85	-93.55
1510.16	-120
1512.46	-120
1514.77	-95.1
1517.07	-120
1519.38	-94.74
1521.68	-120
1523.98	-93.84
1526.29	-120
1528.59	-120
1530.9	-93.7
1533.2	-120
1535.51	-120
1537.81	-120
1540.11	-120
1542.42	-91.66
1544.72	-120
1547.03	-120
1549.33	-120
1551.63	-120
1553.94	-120
1556.24	-120
1558.55	-91.97
1560.85	-120
1563.16	-120
1565.46	-120
1567.76	-120
1570.07	-120
1572.37	-120
1574.68	-120
1576.98	-120
1579.28	-120
1581.59	-120
1583.89	-120
1586.2	-120
1588.5	-120
1590.81	-120
1593.11	-120
1595.41	-120
1597.72	-120
1600.02	-87.64
1602.33	-120
1604.63	-120
1606.94	-120
1609.24	-90.63
1611.54	-120
1613.85	-120
1616.15	-92.94
1618.46	-120
1620.76	-97.52
1623.06	-91.45
1625.37	-120
1627.67	-120
1629.98	-92.29
1632.28	-93.55
1634.59	-120
1636.89	-98.24
1639.19	-88.39
1641.5	-120
1643.8	-90.93
1646.11	-120
1648.41	-93.61
1650.72	-120
1653.02	-120
1655.32	-120
1657.63	-94.65
1659.93	-120
1662.24	-92.83
1664.54	-104.74
1666.84	-120
1669.15	-120
1671.45	-88.93
1673.76	-90.09
1676.06	-120
1678.37	-120
1680.67	-120
1682.97	-120
1685.28	-93.84
1687.58	-120
1689.89	-120
1692.19	-120
1694.49	-120
1696.8	-120
1699.1	-82.61
1701.41	-120
1703.71	-84.96
1706.02	-83.23
1708.32	-120
1710.62	-94.5
1712.93	-82.86
1715.23	-79.07
1717.54	-120
1719.84	-120
1722.15	-81.27
1724.45	-93.35
1726.75	-120
1729.06	-120
1731.36	-120
1733.67	-120
1735.97	-79.3
1738.27	-120
1740.58	-75.77
1742.88	-120
1745.19	-76.58
1747.49	-120
1749.8	-120
1752.1	-120
