Wavelength	Optical power
nm	dBm
1061.5	-120
1061.51	-120
1061.51	-120
1061.52	-90.46
1061.52	-90.46
1061.53	-90.46
1061.53	-91.81
1061.54	-88.81
1061.54	-88.81
1061.55	-86.54
1061.55	-88.81
1061.56	-88.8
1061.56	-86.25
1061.57	-85.58
1061.57	-86.76
1061.58	-86.31
1061.58	-90.93
1061.59	-94.62
1061.59	-84.86
1061.6	-85.44
1061.6	-88.87
1061.61	-84
1061.61	-88.87
1061.62	-85.97
1061.62	-90.52
1061.63	-86.61
1061.63	-88.14
1061.63	-90.52
1061.64	-90.52
1061.64	-85.9
1061.65	-120
1061.65	-120
1061.66	-87.57
1061.66	-92.21
1061.67	-92.21
1061.67	-92.2
1061.68	-92.2
1061.68	-92.2
1061.69	-87.57
1061.69	-120
1061.7	-120
1061.7	-120
1061.71	-120
1061.71	-120
1061.72	-120
1061.72	-101.31
1061.73	-82.81
1061.73	-79.8
1061.74	-84.42
1061.74	-84.42
1061.75	-84.42
1061.76	-79.76
1061.76	-79.8
1061.77	-82.81
1061.77	-120
1061.78	-120
1061.78	-120
1061.79	-120
1061.79	-88.95
1061.8	-88.95
1061.8	-88.95
1061.81	-88.95
1061.81	-88.95
1061.82	-97.03
1061.82	-88.32
1061.83	-97.02
1061.83	-97.02
1061.84	-97.01
1061.84	-97.01
1061.85	-89.67
1061.85	-90.54
1061.86	-90.54
1061.86	-90.54
1061.87	-90.54
1061.87	-90.54
1061.88	-85.92
1061.88	-91.3
1061.88	-91.3
1061.89	-91.29
1061.89	-91.29
1061.9	-91.29
1061.9	-91.29
1061.91	-91.29
1061.91	-120
1061.92	-120
1061.92	-93
1061.93	-92.49
1061.93	-92.49
1061.94	-92.49
1061.94	-92.48
1061.95	-92.48
1061.95	-92.48
1061.96	-101.97
1061.96	-120
1061.97	-84.39
1061.97	-81.38
1061.98	-86.01
1061.98	-86.01
1061.99	-86.01
1061.99	-86.01
1062	-81.3
1062.01	-84.08
1062.01	-95.65
1062.02	-95.65
1062.02	-95.65
1062.03	-95.65
1062.03	-87.94
1062.04	-88.32
1062.04	-88.74
1062.05	-88.74
1062.05	-88.74
1062.06	-88.74
1062.06	-88.74
1062.07	-94.01
1062.07	-94.01
1062.08	-94.01
1062.08	-94.01
1062.09	-94.01
1062.09	-87.19
1062.1	-88.05
1062.1	-85.58
1062.11	-85.56
1062.11	-85.55
1062.12	-84.49
1062.12	-80.07
1062.13	-81
1062.13	-81.29
1062.13	-81.5
1062.14	-81.5
1062.14	-81.51
1062.15	-84.56
1062.15	-120
1062.16	-120
1062.16	-87.85
1062.17	-92.48
1062.17	-92.48
1062.18	-92.48
1062.18	-95.19
1062.19	-95.19
1062.19	-87.12
1062.2	-95.18
1062.2	-95.18
1062.21	-95.18
1062.21	-95.18
1062.22	-120
1062.22	-120
1062.23	-120
1062.23	-120
1062.24	-120
1062.24	-120
1062.25	-120
1062.26	-120
1062.26	-120
1062.27	-120
1062.27	-120
1062.28	-120
1062.28	-85.27
1062.29	-89.91
1062.29	-89.91
1062.3	-89.91
1062.3	-89.91
1062.31	-89.91
1062.31	-85.27
1062.32	-88.64
1062.32	-88.65
1062.33	-88.64
1062.33	-88.64
1062.34	-88.64
1062.34	-88.64
1062.35	-88.64
1062.35	-88.21
1062.36	-92.83
1062.36	-84.72
1062.37	-89.35
1062.37	-89.35
1062.38	-89.35
1062.38	-83.11
1062.38	-89.35
1062.39	-82.41
1062.39	-90.88
1062.4	-90.88
1062.4	-90.88
1062.41	-90.88
1062.41	-90.88
1062.42	-86.25
1062.42	-87.19
1062.43	-91.82
1062.43	-91.82
1062.44	-91.81
1062.44	-91.81
1062.45	-91.81
1062.45	-85.15
1062.46	-89.4
1062.46	-97.52
1062.47	-97.51
1062.47	-97.51
1062.48	-97.5
1062.48	-88.77
1062.49	-91.82
1062.49	-87.06
1062.5	-89.46
1062.51	-90.47
1062.51	-90.47
1062.52	-90.47
1062.52	-83.15
1062.53	-83.17
1062.53	-91.96
1062.54	-88.14
1062.54	-92.49
1062.55	-89.48
1062.55	-89.48
1062.56	-87.54
1062.56	-89.48
1062.57	-89.48
1062.57	-89.48
1062.58	-90.57
1062.58	-92.03
1062.59	-90.03
1062.59	-90.03
1062.6	-90.03
1062.6	-86.36
1062.61	-87.48
1062.61	-88.32
1062.62	-89.36
1062.62	-91
1062.63	-91
1062.63	-86.36
1062.63	-120
1062.64	-120
1062.64	-120
1062.65	-120
1062.65	-120
1062.66	-120
1062.66	-120
1062.67	-94.25
1062.67	-94.25
1062.68	-94.25
1062.68	-94.25
1062.69	-94.25
1062.69	-83.74
1062.7	-87.13
1062.7	-83.64
1062.71	-98.36
1062.71	-95.35
1062.72	-95.34
1062.72	-80.76
1062.73	-85.66
1062.73	-83.2
1062.74	-85.51
1062.74	-85.74
1062.75	-97.02
1062.76	-83.02
1062.76	-89.14
1062.77	-95.49
1062.77	-88.26
1062.78	-89.16
1062.78	-89.16
1062.79	-89.16
1062.79	-89.16
1062.8	-84.44
1062.8	-84.53
1062.81	-86.18
1062.81	-90.81
1062.82	-90.81
1062.82	-90.64
1062.83	-90.64
1062.83	-92.92
1062.84	-85.3
1062.84	-98.36
1062.85	-98.35
1062.85	-91.62
1062.86	-97.51
1062.86	-89.11
1062.87	-92.68
1062.87	-91.44
1062.88	-92.68
1062.88	-92.68
1062.88	-87.97
1062.89	-87.94
1062.89	-103.71
1062.9	-103.71
1062.9	-103.71
1062.91	-103.71
1062.91	-88.61
1062.92	-85.53
1062.92	-85.6
1062.93	-85.6
1062.93	-85.6
1062.94	-85.6
1062.94	-85.6
1062.95	-88.61
1062.95	-120
1062.96	-120
1062.96	-120
1062.97	-120
1062.97	-120
1062.98	-120
1062.98	-120
1062.99	-120
1062.99	-84.29
1063	-82.38
1063.01	-87.01
1063.01	-84.85
1063.02	-89.48
1063.02	-89.48
1063.03	-80.43
1063.03	-82.73
1063.04	-89.48
1063.04	-83.39
1063.05	-88.85
1063.05	-88.85
1063.06	-88.85
1063.06	-85.7
1063.07	-90.33
1063.07	-86.52
1063.08	-90.33
1063.08	-90.33
1063.09	-90.33
1063.09	-85.7
1063.1	-120
1063.1	-120
1063.11	-120
1063.11	-120
1063.12	-90.27
1063.12	-87.26
1063.13	-85.35
1063.13	-84.99
1063.13	-84.99
1063.14	-84.99
1063.14	-82.97
1063.15	-83.86
1063.15	-84.99
1063.16	-96
1063.16	-93.01
1063.17	-93.01
1063.17	-93.01
1063.18	-93
1063.18	-93
1063.19	-93
1063.19	-89.39
1063.2	-84.1
1063.2	-88.73
1063.21	-88.73
1063.21	-88.73
1063.22	-88.73
1063.22	-84.1
1063.23	-86.06
1063.23	-93.19
1063.24	-92.03
1063.24	-92.04
1063.25	-92.04
1063.26	-92.03
1063.26	-87.28
1063.27	-91.16
1063.27	-88.38
1063.28	-94.91
1063.28	-94.9
1063.29	-94.9
1063.29	-85.84
1063.3	-89.86
1063.3	-87.98
1063.31	-86.07
1063.31	-86.68
1063.32	-86.68
1063.32	-90.79
1063.33	-84.19
1063.33	-85.55
1063.34	-85.84
1063.34	-87.78
1063.35	-87.78
1063.35	-87.78
1063.36	-90.78
1063.36	-120
1063.37	-120
1063.37	-120
1063.38	-120
1063.38	-120
1063.38	-120
1063.39	-120
1063.39	-95.83
1063.4	-95.84
1063.4	-95.84
1063.41	-97.77
1063.41	-97.77
1063.42	-97.77
1063.42	-93.69
1063.43	-97.76
1063.43	-97.76
1063.44	-97.76
1063.44	-120
1063.45	-120
1063.45	-120
1063.46	-120
1063.46	-120
1063.47	-120
1063.47	-120
1063.48	-120
1063.48	-98.66
1063.49	-98.66
1063.49	-98.66
1063.5	-98.66
1063.51	-98.66
1063.51	-98.66
1063.52	-98.66
1063.52	-89.87
1063.53	-86.86
1063.53	-86.86
1063.54	-86.86
1063.54	-85.14
1063.55	-89.77
1063.55	-85.06
1063.56	-86.81
1063.56	-89.76
1063.57	-89.76
1063.57	-85.14
1063.58	-84.06
1063.58	-88.68
1063.59	-88.3
1063.59	-92.92
1063.6	-92.92
1063.6	-87.08
1063.61	-80.2
1063.61	-82.4
1063.62	-81.4
1063.62	-90.58
1063.63	-90.14
1063.63	-81.66
1063.63	-83.13
1063.64	-85.71
1063.64	-89.74
1063.65	-89.74
1063.65	-97.02
1063.66	-99.39
1063.66	-106.66
1063.67	-106.66
1063.67	-83.46
1063.68	-82.46
1063.68	-84.6
1063.69	-83.11
1063.69	-79.85
1063.7	-77.72
1063.7	-76.39
1063.71	-76.49
1063.71	-76.38
1063.72	-76.22
1063.72	-76.05
1063.73	-75.89
1063.73	-76.84
1063.74	-75.59
1063.74	-75.15
1063.75	-73.94
1063.76	-72.85
1063.76	-71.85
1063.77	-71.04
1063.77	-70.08
1063.78	-69.57
1063.78	-68.75
1063.79	-68.04
1063.79	-67.15
1063.8	-66.49
1063.8	-65.67
1063.81	-64.86
1063.81	-63.86
1063.82	-63.07
1063.82	-62.32
1063.83	-61.56
1063.83	-60.91
1063.84	-60.36
1063.84	-59.83
1063.85	-59.36
1063.85	-58.85
1063.86	-58.27
1063.86	-57.66
1063.87	-57.12
1063.87	-56.58
1063.88	-56.03
1063.88	-55.46
1063.88	-54.79
1063.89	-54.17
1063.89	-53.34
1063.9	-52.65
1063.9	-51.91
1063.91	-51.2
1063.91	-50.46
1063.92	-49.87
1063.92	-49.18
1063.93	-48.7
1063.93	-48.06
1063.94	-47.16
1063.94	-46.22
1063.95	-45.08
1063.95	-43.42
1063.96	-41.05
1063.96	-39.53
1063.97	-38.09
1063.97	-36.7
1063.98	-35.64
1063.98	-34.72
1063.99	-33.98
1063.99	-33.52
1064	-33.1
1064.01	-32.69
1064.01	-32.42
1064.02	-31.97
1064.02	-31.58
1064.03	-31.25
1064.03	-30.85
1064.04	-30.38
1064.04	-29.94
1064.05	-29.54
1064.05	-29.22
1064.06	-28.88
1064.06	-28.56
1064.07	-28.21
1064.07	-27.86
1064.08	-27.5
1064.08	-27.1
1064.09	-26.73
1064.09	-26.35
1064.1	-26.01
1064.1	-25.75
1064.11	-25.56
1064.11	-25.45
1064.12	-25.39
1064.12	-25.39
1064.13	-25.45
1064.13	-25.51
1064.13	-25.61
1064.14	-25.72
1064.14	-25.84
1064.15	-25.96
1064.15	-26.06
1064.16	-26.17
1064.16	-26.28
1064.17	-26.39
1064.17	-26.55
1064.18	-26.75
1064.18	-27.08
1064.19	-27.49
1064.19	-27.93
1064.2	-28.56
1064.2	-29.47
1064.21	-30.45
1064.21	-31.64
1064.22	-32.8
1064.22	-34.06
1064.23	-35.84
1064.23	-37.78
1064.24	-38.68
1064.24	-39.73
1064.25	-40.51
1064.26	-41.27
1064.26	-42.13
1064.27	-43.2
1064.27	-44.04
1064.28	-44.75
1064.28	-45.37
1064.29	-45.88
1064.29	-46.41
1064.3	-46.97
1064.3	-47.62
1064.31	-48.33
1064.31	-49.2
1064.32	-50.15
1064.32	-51.03
1064.33	-51.85
1064.33	-52.54
1064.34	-53.44
1064.34	-54.17
1064.35	-54.77
1064.35	-55.45
1064.36	-56.1
1064.36	-56.82
1064.37	-57.68
1064.37	-58.64
1064.38	-59.48
1064.38	-60.61
1064.38	-61.41
1064.39	-62.17
1064.39	-62.91
1064.4	-63.82
1064.4	-64.56
1064.41	-65.36
1064.41	-66.21
1064.42	-66.93
1064.42	-68
1064.43	-68.68
1064.43	-69.48
1064.44	-70.32
1064.44	-71.08
1064.45	-71.6
1064.45	-72.12
1064.46	-72.18
1064.46	-72.62
1064.47	-73.29
1064.47	-73.74
1064.48	-74.01
1064.48	-75.1
1064.49	-74.95
1064.49	-75.92
1064.5	-77.18
1064.51	-78.29
1064.51	-77.57
1064.52	-81.29
1064.52	-78.32
1064.53	-83.58
1064.53	-82.84
1064.54	-82.21
1064.54	-78.46
1064.55	-80.49
1064.55	-79.48
1064.56	-80.32
1064.56	-80.76
1064.57	-81.2
1064.57	-81.69
1064.58	-82.24
1064.58	-80.93
1064.59	-93.81
1064.59	-83.18
1064.6	-87.24
1064.6	-84.21
1064.61	-88.85
1064.61	-88.85
1064.62	-87.64
1064.62	-88.85
1064.63	-84.21
1064.63	-86.82
1064.63	-94.27
1064.64	-88.27
1064.64	-92.9
1064.65	-92.9
1064.65	-83.74
1064.66	-83.95
1064.66	-84.15
1064.67	-81.09
1064.67	-86.64
1064.68	-86.64
1064.68	-81.8
1064.69	-86.24
1064.69	-94.92
1064.7	-94.91
1064.7	-94.91
1064.71	-94.91
1064.71	-94.91
1064.72	-120
1064.72	-120
1064.73	-87.38
1064.73	-84.37
1064.74	-89
1064.74	-89
1064.75	-89
1064.76	-89
1064.76	-84.37
1064.77	-83.95
1064.77	-83.56
1064.78	-88.19
1064.78	-88.19
1064.79	-87.98
1064.79	-87.98
1064.8	-83.49
1064.8	-86.43
1064.81	-101.33
1064.81	-101.33
1064.82	-101.33
1064.82	-120
1064.83	-93.3
1064.83	-93.3
1064.84	-93.3
1064.84	-93.3
1064.85	-87.77
1064.85	-86.37
1064.86	-87.47
1064.86	-87.77
1064.87	-92.39
1064.87	-92.39
1064.88	-83.88
1064.88	-84.34
1064.88	-85.16
1064.89	-82.73
1064.89	-89
1064.9	-89
1064.9	-88.99
1064.91	-84.37
1064.91	-120
1064.92	-120
1064.92	-88.12
1064.93	-87.33
1064.93	-87.33
1064.94	-87.33
1064.94	-87.33
1064.95	-87.33
1064.95	-83.09
1064.96	-86.21
1064.96	-83.89
1064.97	-83.89
1064.97	-83.89
1064.98	-83.89
1064.98	-83.89
1064.99	-89.88
1064.99	-120
1065	-120
1065.01	-120
1065.01	-120
1065.02	-120
1065.02	-120
1065.03	-80.44
1065.03	-85.07
1065.04	-85.07
1065.04	-85.07
1065.05	-85.07
1065.05	-83.14
1065.06	-78.58
1065.06	-90.97
1065.07	-90.97
1065.07	-83.75
1065.08	-80.74
1065.08	-78.51
1065.09	-85.36
1065.09	-84.31
1065.1	-85.36
1065.1	-80.74
1065.11	-83.75
1065.11	-120
1065.12	-120
1065.12	-120
1065.13	-120
1065.13	-88.83
1065.13	-88.83
1065.14	-88.83
1065.14	-87.77
1065.15	-92.39
1065.15	-92.39
1065.16	-87.24
1065.16	-92.39
1065.17	-92.39
1065.17	-87.77
1065.18	-120
1065.18	-120
1065.19	-120
1065.19	-120
1065.2	-90.29
1065.2	-84.91
1065.21	-81.9
1065.21	-86.52
1065.22	-90.15
1065.22	-90.15
1065.23	-80.78
1065.23	-81.29
1065.24	-83.77
1065.24	-90.15
1065.25	-86.29
1065.26	-88.59
1065.26	-90.44
1065.27	-90.44
1065.27	-90.44
1065.28	-90.44
1065.28	-83.08
1065.29	-86.8
1065.29	-85.83
1065.3	-85.13
1065.3	-85.12
1065.31	-85.12
1065.31	-85.12
1065.32	-85.12
1065.32	-87.94
1065.33	-92.08
1065.33	-83.04
1065.34	-87.67
1065.34	-82.57
1065.35	-79.57
1065.35	-77.49
1065.36	-91.91
1065.36	-77.78
1065.37	-92.51
1065.37	-79.12
1065.38	-81.72
1065.38	-92.51
1065.38	-89.19
1065.39	-88.79
1065.39	-87.26
1065.4	-88.79
1065.4	-94.39
1065.41	-87.8
1065.41	-84.78
1065.42	-85.48
1065.42	-87.01
1065.43	-86.51
1065.43	-83.36
1065.44	-82.1
1065.44	-83.47
1065.45	-92.2
1065.45	-85.47
1065.46	-87.54
1065.46	-85.27
1065.47	-85.51
1065.47	-83.1
1065.48	-82.33
1065.48	-82.33
1065.49	-82.33
1065.49	-84.98
1065.5	-84.1
1065.51	-85.36
1065.51	-86.7
1065.52	-94.52
1065.52	-84.06
1065.53	-81.21
1065.53	-83.27
1065.54	-80.81
1065.54	-80.63
1065.55	-80.72
1065.55	-80.81
1065.56	-83.59
1065.56	-91.32
1065.57	-84.89
1065.57	-82.1
1065.58	-86.72
1065.58	-86.72
1065.59	-86.72
1065.59	-86.72
1065.6	-82.1
1065.6	-85.33
1065.61	-120
1065.61	-120
1065.62	-120
1065.62	-120
1065.63	-120
1065.63	-84
1065.63	-88.63
1065.64	-85.77
1065.64	-90.39
1065.65	-90.39
1065.65	-90.39
1065.66	-81.78
1065.66	-90.06
1065.67	-85.65
1065.67	-101.33
1065.68	-101.33
1065.68	-101.33
1065.69	-101.33
1065.69	-101.33
1065.7	-120
1065.7	-120
1065.71	-120
1065.71	-120
1065.72	-120
1065.72	-120
1065.73	-120
1065.73	-120
1065.74	-120
1065.74	-120
1065.75	-94.65
1065.76	-91.64
1065.76	-91.64
1065.77	-91.64
1065.77	-91.63
1065.78	-91.63
1065.78	-88.89
1065.79	-87.43
1065.79	-81.71
1065.8	-86.34
1065.8	-86.34
1065.81	-86.34
1065.81	-81.71
1065.82	-81.8
1065.82	-83.86
1065.83	-92.53
1065.83	-81.05
1065.84	-85.68
1065.84	-85.68
1065.85	-79.17
1065.85	-90.43
1065.86	-90.43
1065.86	-79.8
1065.87	-90.43
1065.87	-90.43
1065.88	-85.8
1065.88	-86.64
1065.88	-91.26
1065.89	-91.26
1065.89	-91.26
1065.9	-91.26
1065.9	-91.26
1065.91	-82.96
1065.91	-90.02
1065.92	-90.02
1065.92	-90.02
1065.93	-94.39
1065.93	-94.39
1065.94	-84.88
1065.94	-94.39
1065.95	-94.39
1065.95	-94.38
1065.96	-94.38
1065.96	-120
1065.97	-120
1065.97	-90.8
1065.98	-90.8
1065.98	-87.7
1065.99	-92.31
1065.99	-92.31
1066	-87.24
1066.01	-86.84
1066.01	-91.86
1066.02	-84.44
1066.02	-91.85
1066.03	-91.85
1066.03	-87.24
1066.04	-90.39
1066.04	-90.39
1066.05	-90.39
1066.05	-90.39
1066.06	-90.38
1066.06	-90.38
1066.07	-90.38
1066.07	-120
1066.08	-120
1066.08	-120
1066.09	-120
1066.09	-120
1066.1	-120
1066.1	-90.54
1066.11	-89.22
1066.11	-89.23
1066.12	-89.22
1066.12	-92.13
1066.13	-92.12
1066.13	-87.43
1066.13	-90.33
1066.14	-92.12
1066.14	-92.12
1066.15	-92.12
1066.15	-120
1066.16	-120
1066.16	-120
1066.17	-120
1066.17	-120
1066.18	-84.92
1066.18	-89.55
1066.19	-89.55
1066.19	-89.55
1066.2	-89.55
1066.2	-89.55
1066.21	-84.92
1066.21	-95.2
1066.22	-92.76
1066.22	-88.93
1066.23	-86.93
1066.23	-86.93
1066.24	-83.28
1066.24	-84.38
1066.25	-84.75
1066.26	-85.01
1066.26	-86.18
1066.27	-87.8
1066.27	-83.24
1066.28	-103.72
1066.28	-103.72
1066.29	-92.68
1066.29	-93.03
1066.3	-93.03
1066.3	-93.03
1066.31	-93.03
1066.31	-94.15
1066.32	-87.38
1066.32	-94.15
1066.33	-83.17
1066.33	-87.8
1066.34	-87.8
1066.34	-86.89
1066.35	-96.62
1066.35	-92.84
1066.36	-82.72
1066.36	-92.84
1066.37	-95.06
1066.37	-92.05
1066.38	-89.42
1066.38	-86.55
1066.38	-88.9
1066.39	-92.59
1066.39	-86.08
1066.4	-86.67
1066.4	-92.59
1066.41	-85.45
1066.41	-89.15
1066.42	-87.53
1066.42	-89.15
1066.43	-89.15
1066.43	-89.15
1066.44	-89.15
1066.44	-96.8
1066.45	-85.65
1066.45	-90.27
1066.46	-90.27
1066.46	-87.54
1066.47	-84.55
1066.47	-89.17
1066.48	-82.05
1066.48	-89.17
1066.49	-89.17
1066.49	-84.55
1066.5	-87.54
