Wavelength	Optical power
nm	dBm
1521	-91.54
1521.07	-120
1521.14	-90.15
1521.21	-83.53
1521.28	-120
1521.35	-120
1521.42	-120
1521.49	-85.72
1521.56	-88.45
1521.63	-120
1521.7	-120
1521.77	-120
1521.84	-120
1521.91	-84.19
1521.98	-120
1522.05	-84.67
1522.12	-120
1522.19	-92.4
1522.26	-81.44
1522.33	-84.85
1522.4	-87.02
1522.47	-120
1522.54	-120
1522.61	-120
1522.68	-120
1522.75	-120
1522.82	-87.22
1522.89	-84.14
1522.96	-82.86
1523.03	-89.89
1523.1	-90.5
1523.17	-120
1523.24	-88.26
1523.31	-87.03
1523.38	-81.06
1523.45	-86.94
1523.52	-120
1523.59	-84.64
1523.66	-82.5
1523.73	-86.18
1523.8	-83.23
1523.87	-85.64
1523.94	-88.57
1524.01	-83.1
1524.08	-98.65
1524.15	-120
1524.22	-106.18
1524.29	-120
1524.36	-120
1524.43	-120
1524.5	-82.84
1524.57	-86
1524.64	-82.37
1524.71	-96.47
1524.78	-120
1524.85	-82.81
1524.92	-120
1524.99	-120
1525.06	-82.19
1525.13	-86.09
1525.2	-83.46
1525.27	-91.54
1525.34	-120
1525.41	-86.07
1525.48	-87.55
1525.55	-120
1525.62	-83.77
1525.69	-120
1525.76	-82.49
1525.83	-120
1525.9	-87.6
1525.97	-89.55
1526.04	-87.83
1526.11	-88.54
1526.18	-82.14
1526.25	-88.19
1526.32	-87.42
1526.39	-82.35
1526.46	-82.9
1526.53	-120
1526.6	-120
1526.67	-90.41
1526.74	-82.11
1526.81	-85.42
1526.88	-120
1526.95	-85.27
1527.02	-83.71
1527.09	-120
1527.16	-83.46
1527.23	-92.69
1527.3	-120
1527.37	-87.36
1527.44	-82.96
1527.51	-87.21
1527.58	-88.22
1527.65	-83.34
1527.72	-84.25
1527.79	-91.71
1527.86	-82.32
1527.93	-120
1528	-87.43
1528.07	-87.03
1528.14	-86.81
1528.21	-85.24
1528.28	-83.69
1528.35	-91.51
1528.42	-82.16
1528.49	-120
1528.56	-120
1528.63	-85.68
1528.7	-87.9
1528.77	-84.61
1528.84	-86.64
1528.91	-83.91
1528.98	-84.06
1529.05	-95.78
1529.12	-82.71
1529.19	-82.61
1529.26	-86.26
1529.33	-83.53
1529.4	-84.83
1529.47	-120
1529.54	-80.89
1529.61	-85.09
1529.68	-82.34
1529.75	-82.05
1529.82	-83.4
1529.89	-90.28
1529.96	-88.4
1530.03	-81.13
1530.1	-81.04
1530.17	-110.97
1530.24	-85.62
1530.31	-82.17
1530.38	-85.68
1530.45	-84.29
1530.52	-83.95
1530.59	-84.47
1530.66	-86.67
1530.73	-86.67
1530.8	-81.59
1530.87	-83.47
1530.94	-83.61
1531.01	-87.54
1531.08	-82.18
1531.15	-82.36
1531.22	-82.81
1531.29	-89.11
1531.36	-80.76
1531.43	-79.62
1531.5	-79.36
1531.57	-82.5
1531.64	-79.52
1531.71	-84.2
1531.78	-83.13
1531.85	-80.85
1531.92	-82.67
1531.99	-83.25
1532.06	-81.25
1532.13	-80.05
1532.2	-80.48
1532.27	-81.31
1532.34	-82.05
1532.41	-78.06
1532.48	-79.07
1532.55	-79.52
1532.62	-77.25
1532.69	-77.9
1532.76	-76.17
1532.83	-77.85
1532.9	-77.81
1532.97	-77.29
1533.04	-77.41
1533.11	-77.85
1533.18	-75.87
1533.25	-77.88
1533.32	-75.76
1533.39	-75.38
1533.46	-75.81
1533.53	-75.13
1533.6	-75.4
1533.67	-74.98
1533.74	-74.42
1533.81	-73.89
1533.88	-73.8
1533.95	-73.5
1534.02	-73.65
1534.09	-72.69
1534.16	-73
1534.23	-72.09
1534.3	-71.9
1534.37	-72.06
1534.44	-71.52
1534.51	-71.25
1534.58	-70.92
1534.65	-70.7
1534.72	-70.59
1534.79	-70.17
1534.86	-70.05
1534.93	-69.59
1535	-69.71
1535.07	-69.27
1535.14	-69.36
1535.21	-69.03
1535.28	-68.93
1535.35	-68.8
1535.42	-68.43
1535.49	-68.56
1535.56	-68.47
1535.63	-68.23
1535.7	-68.12
1535.77	-68.06
1535.84	-67.92
1535.91	-67.98
1535.98	-67.9
1536.05	-67.86
1536.12	-67.77
1536.19	-67.78
1536.26	-67.72
1536.33	-67.57
1536.4	-67.6
1536.47	-67.58
1536.54	-67.54
1536.61	-67.52
1536.68	-67.44
1536.75	-67.51
1536.82	-67.36
1536.89	-67.38
1536.96	-67.41
1537.03	-67.4
1537.1	-67.44
1537.17	-67.36
1537.24	-67.42
1537.31	-67.3
1537.38	-67.37
1537.45	-67.2
1537.52	-67.29
1537.59	-67.07
1537.66	-67.06
1537.73	-66.99
1537.8	-66.91
1537.87	-66.99
1537.94	-66.89
1538.01	-66.89
1538.08	-66.92
1538.15	-66.7
1538.22	-66.64
1538.29	-66.43
1538.36	-66.4
1538.43	-66.26
1538.5	-66.15
1538.57	-66.01
1538.64	-65.99
1538.71	-65.75
1538.78	-65.69
1538.85	-65.51
1538.92	-65.4
1538.99	-65.21
1539.06	-65.11
1539.13	-64.98
1539.2	-64.81
1539.27	-64.68
1539.34	-64.59
1539.41	-64.37
1539.48	-64.21
1539.55	-64.08
1539.62	-63.87
1539.69	-63.7
1539.76	-63.52
1539.83	-63.33
1539.9	-63.16
1539.97	-63.04
1540.04	-62.83
1540.11	-62.71
1540.18	-62.57
1540.25	-62.36
1540.32	-62.23
1540.39	-62.07
1540.46	-61.91
1540.53	-61.71
1540.6	-61.59
1540.67	-61.46
1540.74	-61.24
1540.81	-61.05
1540.88	-60.93
1540.95	-60.77
1541.02	-60.65
1541.09	-60.5
1541.16	-60.37
1541.23	-60.26
1541.3	-60.12
1541.37	-60
1541.44	-59.87
1541.51	-59.74
1541.58	-59.62
1541.65	-59.46
1541.72	-59.35
1541.79	-59.17
1541.86	-59.07
1541.93	-58.93
1542	-58.84
1542.07	-58.74
1542.14	-58.63
1542.21	-58.61
1542.28	-58.49
1542.35	-58.41
1542.42	-58.36
1542.49	-58.29
1542.56	-58.22
1542.63	-58.15
1542.7	-58.06
1542.77	-57.98
1542.84	-57.9
1542.91	-57.85
1542.98	-57.79
1543.05	-57.75
1543.12	-57.72
1543.19	-57.7
1543.26	-57.68
1543.33	-57.66
1543.4	-57.69
1543.47	-57.69
1543.54	-57.66
1543.61	-57.64
1543.68	-57.64
1543.75	-57.63
1543.82	-57.61
1543.89	-57.61
1543.96	-57.58
1544.03	-57.58
1544.1	-57.54
1544.17	-57.59
1544.24	-57.63
1544.31	-57.64
1544.38	-57.67
1544.45	-57.72
1544.52	-57.76
1544.59	-57.83
1544.66	-57.84
1544.73	-57.88
1544.8	-57.87
1544.87	-57.92
1544.94	-57.93
1545.01	-57.93
1545.08	-57.94
1545.15	-57.95
1545.22	-57.99
1545.29	-58.06
1545.36	-58.1
1545.43	-58.2
1545.5	-58.27
1545.57	-58.33
1545.64	-58.38
1545.71	-58.41
1545.78	-58.49
1545.85	-58.54
1545.92	-58.58
1545.99	-58.63
1546.06	-58.66
1546.13	-58.64
1546.2	-58.65
1546.27	-58.66
1546.34	-58.7
1546.41	-58.78
1546.48	-58.85
1546.55	-58.96
1546.62	-59.06
1546.69	-59.13
1546.76	-59.22
1546.83	-59.28
1546.9	-59.33
1546.97	-59.38
1547.04	-59.42
1547.11	-59.45
1547.18	-59.47
1547.25	-59.48
1547.32	-59.46
1547.39	-59.49
1547.46	-59.53
1547.53	-59.6
1547.6	-59.69
1547.67	-59.78
1547.74	-59.85
1547.81	-59.96
1547.88	-59.99
1547.95	-60.03
1548.02	-60.09
1548.09	-60.13
1548.16	-60.14
1548.23	-60.17
1548.3	-60.19
1548.37	-60.19
1548.44	-60.16
1548.51	-60.14
1548.58	-60.19
1548.65	-60.26
1548.72	-60.37
1548.79	-60.46
1548.86	-60.52
1548.93	-60.57
1549	-60.62
1549.07	-60.68
1549.14	-60.7
1549.21	-60.72
1549.28	-60.75
1549.35	-60.74
1549.42	-60.74
1549.49	-60.72
1549.56	-60.63
1549.63	-60.65
1549.7	-60.68
1549.77	-60.75
1549.84	-60.83
1549.91	-60.92
1549.98	-60.92
1550.05	-61.02
1550.12	-61.04
1550.19	-61.07
1550.26	-61.06
1550.33	-61.07
1550.4	-61.05
1550.47	-61.05
1550.54	-61.04
1550.61	-60.96
1550.68	-60.91
1550.75	-60.83
1550.82	-60.89
1550.89	-60.93
1550.96	-61
1551.03	-61.05
1551.1	-61.1
1551.17	-61.18
1551.24	-61.13
1551.31	-61.18
1551.38	-61.17
1551.45	-61.17
1551.52	-61.12
1551.59	-61.09
1551.66	-61.04
1551.73	-60.95
1551.8	-60.86
1551.87	-60.8
1551.94	-60.83
1552.01	-60.91
1552.08	-60.95
1552.15	-61.07
1552.22	-61.12
1552.29	-61.16
1552.36	-61.15
1552.43	-61.16
1552.5	-61.16
1552.57	-61.15
1552.64	-61.14
1552.71	-61.1
1552.78	-61.02
1552.85	-60.93
1552.92	-60.83
1552.99	-60.8
1553.06	-60.82
1553.13	-60.84
1553.2	-60.94
1553.27	-61.01
1553.34	-61.05
1553.41	-61.08
1553.48	-61.14
1553.55	-61.1
1553.62	-61.13
1553.69	-61.14
1553.76	-61.11
1553.83	-61.04
1553.9	-60.99
1553.97	-60.84
1554.04	-60.65
1554.11	-60.44
1554.18	-60.29
1554.25	-60.39
1554.32	-60.63
1554.39	-60.8
1554.46	-60.96
1554.53	-61.08
1554.6	-61.13
1554.67	-61.14
1554.74	-61.17
1554.81	-61.21
1554.88	-61.18
1554.95	-61.21
1555.02	-61.18
1555.09	-61.23
1555.16	-61.21
1555.23	-61.19
1555.3	-61.22
1555.37	-61.16
1555.44	-61.11
1555.51	-61.08
1555.58	-60.96
1555.65	-60.72
1555.72	-59.58
1555.79	-49.85
1555.86	-26.9
1555.93	-45.53
1556	-58.81
1556.07	-60.36
1556.14	-60.79
1556.21	-60.94
1556.28	-60.98
1556.35	-61.07
1556.42	-61.06
1556.49	-61.09
1556.56	-61.09
1556.63	-61.08
1556.7	-61.03
1556.77	-61.03
1556.84	-60.95
1556.91	-60.83
1556.98	-60.61
1557.05	-60.24
1557.12	-59.66
1557.19	-59.45
1557.26	-59.88
1557.33	-60.36
1557.4	-60.65
1557.47	-60.77
1557.54	-60.83
1557.61	-60.88
1557.68	-60.87
1557.75	-60.86
1557.82	-60.85
1557.89	-60.85
1557.96	-60.8
1558.03	-60.69
1558.1	-60.57
1558.17	-60.36
1558.24	-60.06
1558.31	-59.73
1558.38	-59.66
1558.45	-59.97
1558.52	-60.26
1558.59	-60.46
1558.66	-60.56
1558.73	-60.63
1558.8	-60.61
1558.87	-60.63
1558.94	-60.62
1559.01	-60.58
1559.08	-60.54
1559.15	-60.47
1559.22	-60.34
1559.29	-60.19
1559.36	-59.95
1559.43	-59.67
1559.5	-59.54
1559.57	-59.67
1559.64	-59.91
1559.71	-60.13
1559.78	-60.23
1559.85	-60.27
1559.92	-60.33
1559.99	-60.35
1560.06	-60.33
1560.13	-60.3
1560.2	-60.28
1560.27	-60.23
1560.34	-60.11
1560.41	-59.94
1560.48	-59.68
1560.55	-59.45
1560.62	-59.26
1560.69	-59.42
1560.76	-59.71
1560.83	-59.96
1560.9	-60.1
1560.97	-60.18
1561.04	-60.23
1561.11	-60.28
1561.18	-60.27
1561.25	-60.26
1561.32	-60.24
1561.39	-60.22
1561.46	-60.12
1561.53	-59.99
1561.6	-59.8
1561.67	-59.5
1561.74	-59.33
1561.81	-59.42
1561.88	-59.71
1561.95	-59.96
1562.02	-60.17
1562.09	-60.28
1562.16	-60.34
1562.23	-60.39
1562.3	-60.41
1562.37	-60.43
1562.44	-60.41
1562.51	-60.38
1562.58	-60.31
1562.65	-60.19
1562.72	-60.03
1562.79	-59.76
1562.86	-59.59
1562.93	-59.71
1563	-59.99
1563.07	-60.25
1563.14	-60.47
1563.21	-60.58
1563.28	-60.68
1563.35	-60.76
1563.42	-60.78
1563.49	-60.82
1563.56	-60.8
1563.63	-60.79
1563.7	-60.76
1563.77	-60.64
1563.84	-60.44
1563.91	-60.16
1563.98	-59.89
1564.05	-59.97
1564.12	-60.32
1564.19	-60.71
1564.26	-60.94
1564.33	-61.09
1564.4	-61.2
1564.47	-61.26
1564.54	-61.3
1564.61	-61.34
1564.68	-61.36
1564.75	-61.38
1564.82	-61.35
1564.89	-61.29
1564.96	-61.16
1565.03	-60.9
1565.1	-60.64
1565.17	-60.62
1565.24	-60.89
1565.31	-61.27
1565.38	-61.55
1565.45	-61.71
1565.52	-61.88
1565.59	-61.94
1565.66	-61.97
1565.73	-62.1
1565.8	-62.13
1565.87	-62.17
1565.94	-62.16
1566.01	-62.14
1566.08	-61.97
1566.15	-61.8
1566.22	-61.61
1566.29	-61.65
1566.36	-61.93
1566.43	-62.2
1566.5	-62.52
1566.57	-62.76
1566.64	-62.88
1566.71	-62.96
1566.78	-63.04
1566.85	-63.17
1566.92	-63.23
1566.99	-63.3
1567.06	-63.3
1567.13	-63.32
1567.2	-63.17
1567.27	-63.04
1567.34	-62.88
1567.41	-62.82
1567.48	-63.1
1567.55	-63.43
1567.62	-63.84
1567.69	-63.97
1567.76	-64.21
1567.83	-64.31
1567.9	-64.39
1567.97	-64.54
1568.04	-64.69
1568.11	-64.72
1568.18	-64.78
1568.25	-64.8
1568.32	-64.78
1568.39	-64.63
1568.46	-64.51
1568.53	-64.45
1568.6	-64.67
1568.67	-65.12
1568.74	-65.39
1568.81	-65.64
1568.88	-66.01
1568.95	-66.03
1569.02	-66.21
1569.09	-66.3
1569.16	-66.39
1569.23	-66.47
1569.3	-66.64
1569.37	-66.51
1569.44	-66.62
1569.51	-66.47
1569.58	-66.28
1569.65	-66.29
1569.72	-66.33
1569.79	-66.77
1569.86	-67.13
1569.93	-67.51
1570	-67.69
1570.07	-67.88
1570.14	-67.99
1570.21	-68.22
1570.28	-68.45
1570.35	-68.44
1570.42	-68.38
1570.49	-68.53
1570.56	-68.5
1570.63	-68.46
1570.7	-68.2
1570.77	-68.27
1570.84	-68.28
1570.91	-68.68
1570.98	-69
1571.05	-69.19
1571.12	-69.47
1571.19	-69.63
1571.26	-69.99
1571.33	-70.07
1571.4	-70.09
1571.47	-70.02
1571.54	-70.26
1571.61	-70.57
1571.68	-70.19
1571.75	-70.3
1571.82	-69.97
1571.89	-69.83
1571.96	-69.91
1572.03	-69.98
1572.1	-70.6
1572.17	-70.95
1572.24	-71.13
1572.31	-70.93
1572.38	-71.16
1572.45	-71.38
1572.52	-71.49
1572.59	-71.74
1572.66	-71.93
1572.73	-71.4
1572.8	-71.8
1572.87	-71.55
1572.94	-71.41
1573.01	-71.49
1573.08	-71.06
1573.15	-71.5
1573.22	-71.82
1573.29	-72.36
1573.36	-72.26
1573.43	-72.5
1573.5	-72.24
1573.57	-72.8
1573.64	-72.72
1573.71	-72.45
1573.78	-72.82
1573.85	-72.58
1573.92	-72.72
1573.99	-72.43
1574.06	-72.67
1574.13	-72.46
1574.2	-72.21
1574.27	-72.31
1574.34	-72.81
1574.41	-72.98
1574.48	-72.7
1574.55	-73.19
1574.62	-73.28
1574.69	-72.97
1574.76	-73.65
1574.83	-73.36
1574.9	-73.13
1574.97	-73.42
1575.04	-73.89
1575.11	-73.43
1575.18	-73.51
1575.25	-73.09
1575.32	-72.97
1575.39	-73.3
1575.46	-73.4
1575.53	-74.03
1575.6	-73.47
1575.67	-74.04
1575.74	-74.42
1575.81	-74.06
1575.88	-74.64
1575.95	-75.06
1576.02	-73.72
1576.09	-74.49
1576.16	-74.51
1576.23	-73.72
1576.3	-73.94
1576.37	-74.06
1576.44	-73.53
1576.51	-74.11
1576.58	-73.36
1576.65	-74.01
1576.72	-74.29
1576.79	-74.6
1576.86	-74.03
1576.93	-74.26
1577	-74.28
1577.07	-74.87
1577.14	-74.39
1577.21	-74.35
1577.28	-74.6
1577.35	-74.15
1577.42	-74.29
1577.49	-74.27
1577.56	-73.94
1577.63	-73.9
1577.7	-74.04
1577.77	-73.83
1577.84	-74.21
1577.91	-74.28
1577.98	-74.72
1578.05	-74.32
1578.12	-74.51
1578.19	-75.23
1578.26	-74.4
1578.33	-74.41
1578.4	-74.83
1578.47	-74.88
1578.54	-74.53
1578.61	-74.63
1578.68	-74.41
1578.75	-74.95
1578.82	-74.34
1578.89	-73.93
1578.96	-74.32
1579.03	-74.65
1579.1	-74.66
1579.17	-75.65
1579.24	-75.46
1579.31	-75.17
1579.38	-75.68
1579.45	-74.76
1579.52	-74.99
1579.59	-74.9
1579.66	-75.45
1579.73	-74.91
1579.8	-74.61
1579.87	-74.74
1579.94	-74.06
1580.01	-74.45
1580.08	-74.13
1580.15	-75.37
1580.22	-74.74
1580.29	-74.68
1580.36	-74.91
1580.43	-75.02
1580.5	-74.93
1580.57	-74.73
1580.64	-75.54
1580.71	-75.19
1580.78	-75.1
1580.85	-74.89
1580.92	-75.35
1580.99	-74.71
1581.06	-74.49
1581.13	-74.67
1581.2	-75.25
1581.27	-74.7
1581.34	-74.85
1581.41	-74.98
1581.48	-75.19
1581.55	-75.43
1581.62	-75.25
1581.69	-74.42
1581.76	-75.2
1581.83	-75.19
1581.9	-74.52
1581.97	-75.6
1582.04	-74.35
1582.11	-75.03
1582.18	-75.01
1582.25	-74.23
1582.32	-74.99
1582.39	-74.38
1582.46	-74.3
1582.53	-74.85
1582.6	-75.13
1582.67	-75.48
1582.74	-75.41
1582.81	-75.15
1582.88	-74.87
1582.95	-75.12
1583.02	-75.84
1583.09	-75.8
1583.16	-75.12
1583.23	-74.96
1583.3	-75.12
1583.37	-74.74
1583.44	-74.59
1583.51	-74.51
1583.58	-75.01
1583.65	-75.26
1583.72	-74.9
1583.79	-75.2
1583.86	-75.44
1583.93	-74.86
1584	-75.03
1584.07	-75.33
1584.14	-74.89
1584.21	-75.44
1584.28	-75.15
1584.35	-74.89
1584.42	-75.33
1584.49	-75.65
1584.56	-74.8
1584.63	-74.45
1584.7	-75.4
1584.77	-74.53
1584.84	-75.56
1584.91	-74.65
1584.98	-74.99
1585.05	-75.5
1585.12	-75.97
1585.19	-74.98
1585.26	-75.77
1585.33	-74.46
1585.4	-75.55
1585.47	-75.71
1585.54	-74.88
1585.61	-74.69
1585.68	-75.39
1585.75	-74.24
1585.82	-74.97
1585.89	-74.63
1585.96	-75.34
1586.03	-75.09
1586.1	-75.12
1586.17	-75.6
1586.24	-75.2
1586.31	-75.68
1586.38	-74.87
1586.45	-75.61
1586.52	-74.64
1586.59	-75.96
1586.66	-75.26
1586.73	-74.93
1586.8	-74.92
1586.87	-74.37
1586.94	-74.67
1587.01	-74.73
1587.08	-75.13
1587.15	-74.38
1587.22	-75.99
1587.29	-74.93
1587.36	-74.95
1587.43	-74.31
1587.5	-74.75
1587.57	-75.76
1587.64	-75.31
1587.71	-75.03
1587.78	-74.72
1587.85	-75.97
1587.92	-75.11
1587.99	-75.17
1588.06	-75.17
1588.13	-74.76
1588.2	-75.39
1588.27	-75.25
1588.34	-74.67
1588.41	-75.92
1588.48	-76.11
1588.55	-75.83
1588.62	-75.21
1588.69	-75.32
1588.76	-75.14
1588.83	-75.33
1588.9	-74.52
1588.97	-75.44
1589.04	-75.13
1589.11	-75.5
1589.18	-75.2
1589.25	-74.78
1589.32	-74.82
1589.39	-75.28
1589.46	-74.36
1589.53	-75.03
1589.6	-75.39
1589.67	-75.51
1589.74	-74.94
1589.81	-74.95
1589.88	-75.28
1589.95	-75.44
1590.02	-75
1590.09	-75.32
1590.16	-75.58
1590.23	-75.21
1590.3	-75.73
1590.37	-74.31
1590.44	-74.67
1590.51	-74.98
1590.58	-74.19
1590.65	-74.95
1590.72	-74.7
1590.79	-75.11
1590.86	-74.87
1590.93	-75.15
1591	-75.46
