Wavelength	Optical power
nm	dBm
1546	-62.3
1546.02	-62.16
1546.04	-62
1546.06	-61.66
1546.08	-61.51
1546.1	-61.24
1546.12	-60.88
1546.14	-60.65
1546.16	-60.43
1546.18	-60.22
1546.2	-60.01
1546.22	-59.83
1546.24	-59.68
1546.26	-59.58
1546.28	-59.52
1546.3	-59.48
1546.32	-59.45
1546.34	-59.48
1546.36	-59.59
1546.38	-59.68
1546.4	-59.79
1546.42	-59.99
1546.44	-60.16
1546.46	-60.34
1546.48	-60.58
1546.5	-60.78
1546.52	-60.99
1546.54	-61.25
1546.56	-61.39
1546.58	-61.58
1546.6	-61.82
1546.62	-61.98
1546.64	-62.13
1546.66	-62.32
1546.68	-62.41
1546.7	-62.59
1546.72	-62.71
1546.74	-62.79
1546.76	-62.83
1546.78	-62.94
1546.8	-63.04
1546.82	-63.04
1546.84	-63.12
1546.86	-63.12
1546.88	-63.17
1546.9	-63.11
1546.92	-63.09
1546.94	-63.02
1546.96	-62.99
1546.98	-62.9
1547	-62.87
1547.02	-62.71
1547.04	-62.59
1547.06	-62.43
1547.08	-62.3
1547.1	-62.15
1547.12	-61.93
1547.14	-61.72
1547.16	-61.56
1547.18	-61.27
1547.2	-61.04
1547.22	-60.81
1547.24	-60.52
1547.26	-60.28
1547.28	-60.09
1547.3	-59.82
1547.32	-59.66
1547.34	-59.51
1547.36	-59.35
1547.38	-59.27
1547.4	-59.25
1547.42	-59.22
1547.44	-59.25
1547.46	-59.3
1547.48	-59.41
1547.5	-59.54
1547.52	-59.71
1547.54	-59.93
1547.56	-60.12
1547.58	-60.32
1547.6	-60.58
1547.62	-60.75
1547.64	-60.97
1547.66	-61.16
1547.68	-61.36
1547.7	-61.5
1547.72	-61.73
1547.74	-61.94
1547.76	-62.04
1547.78	-62.21
1547.8	-62.37
1547.82	-62.53
1547.84	-62.59
1547.86	-62.66
1547.88	-62.77
1547.9	-62.86
1547.92	-62.82
1547.94	-62.91
1547.96	-62.89
1547.98	-62.92
1548	-62.88
1548.02	-62.89
1548.04	-62.93
1548.06	-62.88
1548.08	-62.79
1548.1	-62.71
1548.12	-62.59
1548.14	-62.47
1548.16	-62.36
1548.18	-62.21
1548.2	-62.08
1548.22	-61.9
1548.24	-61.67
1548.26	-61.47
1548.28	-61.21
1548.3	-60.95
1548.32	-60.75
1548.34	-60.48
1548.36	-60.23
1548.38	-59.97
1548.4	-59.79
1548.42	-59.52
1548.44	-59.4
1548.46	-59.16
1548.48	-59.09
1548.5	-59
1548.52	-58.98
1548.54	-58.99
1548.56	-59.01
1548.58	-59.13
1548.6	-59.21
1548.62	-59.36
1548.64	-59.52
1548.66	-59.67
1548.68	-59.85
1548.7	-60.11
1548.72	-60.27
1548.74	-60.47
1548.76	-60.68
1548.78	-60.93
1548.8	-61.11
1548.82	-61.33
1548.84	-61.48
1548.86	-61.62
1548.88	-61.82
1548.9	-61.98
1548.92	-62.02
1548.94	-62.17
1548.96	-62.25
1548.98	-62.32
1549	-62.37
1549.02	-62.47
1549.04	-62.48
1549.06	-62.49
1549.08	-62.53
1549.1	-62.53
1549.12	-62.53
1549.14	-62.45
1549.16	-62.43
1549.18	-62.33
1549.2	-62.24
1549.22	-62.15
1549.24	-62.05
1549.26	-61.95
1549.28	-61.77
1549.3	-61.64
1549.32	-61.47
1549.34	-61.27
1549.36	-61.06
1549.38	-60.89
1549.4	-60.57
1549.42	-60.35
1549.44	-60.01
1549.46	-59.8
1549.48	-59.58
1549.5	-59.33
1549.52	-59.12
1549.54	-58.96
1549.56	-58.77
1549.58	-58.7
1549.6	-58.64
1549.62	-58.62
1549.64	-58.65
1549.66	-58.7
1549.68	-58.79
1549.7	-58.95
1549.72	-59.07
1549.74	-59.28
1549.76	-59.45
1549.78	-59.7
1549.8	-59.92
1549.82	-60.16
1549.84	-60.36
1549.86	-60.61
1549.88	-60.83
1549.9	-61.05
1549.92	-61.24
1549.94	-61.37
1549.96	-61.51
1549.98	-61.74
1550	-61.79
1550.02	-62.04
1550.04	-62.11
1550.06	-62.18
1550.08	-62.35
1550.1	-62.41
1550.12	-62.45
1550.14	-62.51
1550.16	-62.48
1550.18	-62.53
1550.2	-62.48
1550.22	-62.49
1550.24	-62.43
1550.26	-62.42
1550.28	-62.36
1550.3	-62.25
1550.32	-62.2
1550.34	-62.09
1550.36	-61.99
1550.38	-61.88
1550.4	-61.73
1550.42	-61.55
1550.44	-61.34
1550.46	-61.17
1550.48	-60.91
1550.5	-60.71
1550.52	-60.48
1550.54	-60.18
1550.56	-59.94
1550.58	-59.67
1550.6	-59.45
1550.62	-59.22
1550.64	-58.98
1550.66	-58.79
1550.68	-58.66
1550.7	-58.53
1550.72	-58.43
1550.74	-58.39
1550.76	-58.43
1550.78	-58.47
1550.8	-58.57
1550.82	-58.74
1550.84	-58.83
1550.86	-59.02
1550.88	-59.26
1550.9	-59.45
1550.92	-59.63
1550.94	-59.87
1550.96	-60.09
1550.98	-60.36
1551	-60.48
1551.02	-60.72
1551.04	-60.94
1551.06	-61.07
1551.08	-61.2
1551.1	-61.44
1551.12	-61.57
1551.14	-61.66
1551.16	-61.8
1551.18	-61.85
1551.2	-61.94
1551.22	-62.05
1551.24	-62.06
1551.26	-62.1
1551.28	-62.12
1551.3	-62.14
1551.32	-62.11
1551.34	-62.08
1551.36	-62.09
1551.38	-61.97
1551.4	-61.91
1551.42	-61.84
1551.44	-61.76
1551.46	-61.64
1551.48	-61.52
1551.5	-61.34
1551.52	-61.16
1551.54	-61.07
1551.56	-60.8
1551.58	-60.6
1551.6	-60.36
1551.62	-60.12
1551.64	-59.89
1551.66	-59.59
1551.68	-59.3
1551.7	-59.09
1551.72	-58.77
1551.74	-58.51
1551.76	-58.32
1551.78	-58.1
1551.8	-57.96
1551.82	-57.83
1551.84	-57.77
1551.86	-57.76
1551.88	-57.8
1551.9	-57.89
1551.92	-58.01
1551.94	-58.16
1551.96	-58.37
1551.98	-58.56
1552	-58.82
1552.02	-59.04
1552.04	-59.27
1552.06	-59.59
1552.08	-59.8
1552.1	-60.01
1552.12	-60.26
1552.14	-60.44
1552.16	-60.7
1552.18	-60.88
1552.2	-61.06
1552.22	-61.26
1552.24	-61.37
1552.26	-61.53
1552.28	-61.69
1552.3	-61.76
1552.32	-61.85
1552.34	-61.91
1552.36	-61.97
1552.38	-62.03
1552.4	-62.05
1552.42	-62.07
1552.44	-62.08
1552.46	-62.08
1552.48	-62.06
1552.5	-62.03
1552.52	-61.95
1552.54	-61.89
1552.56	-61.78
1552.58	-61.73
1552.6	-61.63
1552.62	-61.42
1552.64	-61.3
1552.66	-61.15
1552.68	-60.96
1552.7	-60.76
1552.72	-60.5
1552.74	-60.28
1552.76	-60.05
1552.78	-59.76
1552.8	-59.51
1552.82	-59.26
1552.84	-58.93
1552.86	-58.68
1552.88	-58.4
1552.9	-58.2
1552.92	-58
1552.94	-57.82
1552.96	-57.74
1552.98	-57.68
1553	-57.67
1553.02	-57.71
1553.04	-57.76
1553.06	-57.9
1553.08	-58.05
1553.1	-58.2
1553.12	-58.43
1553.14	-58.66
1553.16	-58.87
1553.18	-59.12
1553.2	-59.36
1553.22	-59.63
1553.24	-59.85
1553.26	-60.05
1553.28	-60.32
1553.3	-60.52
1553.32	-60.73
1553.34	-60.92
1553.36	-61.05
1553.38	-61.17
1553.4	-61.35
1553.42	-61.47
1553.44	-61.62
1553.46	-61.7
1553.48	-61.81
1553.5	-61.86
1553.52	-61.92
1553.54	-61.98
1553.56	-61.96
1553.58	-61.98
1553.6	-61.95
1553.62	-61.91
1553.64	-61.89
1553.66	-61.81
1553.68	-61.74
1553.7	-61.7
1553.72	-61.55
1553.74	-61.47
1553.76	-61.3
1553.78	-61.1
1553.8	-60.91
1553.82	-60.71
1553.84	-60.43
1553.86	-60.15
1553.88	-59.8
1553.9	-59.53
1553.92	-59.16
1553.94	-58.83
1553.96	-58.4
1553.98	-57.94
1554	-57.52
1554.02	-57.15
1554.04	-56.72
1554.06	-56.25
1554.08	-55.96
1554.1	-55.65
1554.12	-55.46
1554.14	-55.29
1554.16	-55.21
1554.18	-55.23
1554.2	-55.34
1554.22	-55.56
1554.24	-55.83
1554.26	-56.08
1554.28	-56.58
1554.3	-56.97
1554.32	-57.38
1554.34	-57.84
1554.36	-58.23
1554.38	-58.65
1554.4	-59.12
1554.42	-59.48
1554.44	-59.88
1554.46	-60.26
1554.48	-60.61
1554.5	-61.02
1554.52	-61.32
1554.54	-61.65
1554.56	-61.89
1554.58	-62.19
1554.6	-62.48
1554.62	-62.65
1554.64	-62.86
1554.66	-63.16
1554.68	-63.36
1554.7	-63.53
1554.72	-63.73
1554.74	-63.97
1554.76	-64.08
1554.78	-64.23
1554.8	-64.39
1554.82	-64.53
1554.84	-64.64
1554.86	-64.7
1554.88	-64.87
1554.9	-64.9
1554.92	-64.95
1554.94	-64.99
1554.96	-65.09
1554.98	-65.1
1555	-65.17
1555.02	-65.12
1555.04	-65.21
1555.06	-65.19
1555.08	-65.14
1555.1	-65.08
1555.12	-65.06
1555.14	-64.97
1555.16	-64.96
1555.18	-64.88
1555.2	-64.79
1555.22	-64.7
1555.24	-64.64
1555.26	-64.48
1555.28	-64.33
1555.3	-64.21
1555.32	-64.12
1555.34	-64.01
1555.36	-63.77
1555.38	-63.56
1555.4	-63.3
1555.42	-63.01
1555.44	-62.76
1555.46	-62.53
1555.48	-62.09
1555.5	-61.75
1555.52	-61.24
1555.54	-60.85
1555.56	-60.35
1555.58	-59.76
1555.6	-59.12
1555.62	-58.3
1555.64	-57.18
1555.66	-56.27
1555.68	-54.83
1555.7	-52.53
1555.72	-49.6
1555.74	-44.66
1555.76	-39.45
1555.78	-35.39
1555.8	-27.46
1555.82	-18.84
1555.84	-15.53
1555.86	-17.92
1555.88	-24.85
1555.9	-33.51
1555.92	-40.15
1555.94	-45.71
1555.96	-49.87
1555.98	-52.16
1556	-54.04
1556.02	-55.76
1556.04	-56.78
1556.06	-57.92
1556.08	-58.65
1556.1	-59.19
1556.12	-59.78
1556.14	-60.28
1556.16	-60.78
1556.18	-61.24
1556.2	-61.55
1556.22	-62.01
1556.24	-62.29
1556.26	-62.57
1556.28	-62.85
1556.3	-63.09
1556.32	-63.26
1556.34	-63.46
1556.36	-63.62
1556.38	-63.77
1556.4	-63.94
1556.42	-64.03
1556.44	-64.09
1556.46	-64.1
1556.48	-64.1
1556.5	-64.08
1556.52	-64.17
1556.54	-64.14
1556.56	-64.09
1556.58	-64.02
1556.6	-63.84
1556.62	-63.75
1556.64	-63.67
1556.66	-63.48
1556.68	-63.3
1556.7	-63.17
1556.72	-62.92
1556.74	-62.67
1556.76	-62.34
1556.78	-62.11
1556.8	-61.81
1556.82	-61.43
1556.84	-61.02
1556.86	-60.67
1556.88	-60.22
1556.9	-59.76
1556.92	-59.06
1556.94	-58.52
1556.96	-57.99
1556.98	-57.28
1557	-56.59
1557.02	-55.93
1557.04	-55.08
1557.06	-54.43
1557.08	-53.72
1557.1	-53.23
1557.12	-52.87
1557.14	-52.67
1557.16	-52.72
1557.18	-52.94
1557.2	-53.45
1557.22	-53.94
1557.24	-54.66
1557.26	-55.28
1557.28	-56
1557.3	-56.68
1557.32	-57.27
1557.34	-57.79
1557.36	-58.42
1557.38	-58.96
1557.4	-59.52
1557.42	-59.94
1557.44	-60.35
1557.46	-60.76
1557.48	-61.1
1557.5	-61.37
1557.52	-61.67
1557.54	-61.85
1557.56	-62.14
1557.58	-62.36
1557.6	-62.57
1557.62	-62.71
1557.64	-62.81
1557.66	-62.89
1557.68	-62.96
1557.7	-63.04
1557.72	-63.01
1557.74	-63.04
1557.76	-62.98
1557.78	-62.94
1557.8	-62.91
1557.82	-62.78
1557.84	-62.67
1557.86	-62.56
1557.88	-62.38
1557.9	-62.22
1557.92	-62.04
1557.94	-61.71
1557.96	-61.54
1557.98	-61.24
1558	-60.9
1558.02	-60.6
1558.04	-60.18
1558.06	-59.81
1558.08	-59.46
1558.1	-58.95
1558.12	-58.5
1558.14	-58.05
1558.16	-57.42
1558.18	-57.01
1558.2	-56.36
1558.22	-55.88
1558.24	-55.52
1558.26	-55.01
1558.28	-54.68
1558.3	-54.43
1558.32	-54.35
1558.34	-54.38
1558.36	-54.56
1558.38	-54.85
1558.4	-55.17
1558.42	-55.65
1558.44	-56.08
1558.46	-56.78
1558.48	-57.29
1558.5	-57.77
1558.52	-58.22
1558.54	-58.72
1558.56	-59.05
1558.58	-59.57
1558.6	-59.96
1558.62	-60.33
1558.64	-60.69
1558.66	-60.95
1558.68	-61.27
1558.7	-61.58
1558.72	-61.75
1558.74	-61.96
1558.76	-62.06
1558.78	-62.22
1558.8	-62.36
1558.82	-62.43
1558.84	-62.51
1558.86	-62.53
1558.88	-62.54
1558.9	-62.54
1558.92	-62.54
1558.94	-62.5
1558.96	-62.45
1558.98	-62.36
1559	-62.25
1559.02	-62.07
1559.04	-61.87
1559.06	-61.71
1559.08	-61.52
1559.1	-61.29
1559.12	-61.02
1559.14	-60.72
1559.16	-60.45
1559.18	-60.16
1559.2	-59.73
1559.22	-59.42
1559.24	-58.98
1559.26	-58.52
1559.28	-58.22
1559.3	-57.78
1559.32	-57.24
1559.34	-56.76
1559.36	-56.31
1559.38	-55.97
1559.4	-55.66
1559.42	-55.3
1559.44	-55.13
1559.46	-55.05
1559.48	-55.08
1559.5	-55.17
1559.52	-55.41
1559.54	-55.67
1559.56	-55.99
1559.58	-56.48
1559.6	-56.82
1559.62	-57.35
1559.64	-57.74
1559.66	-58.2
1559.68	-58.7
1559.7	-59.1
1559.72	-59.49
1559.74	-59.82
1559.76	-60.16
1559.78	-60.56
1559.8	-60.81
1559.82	-61.03
1559.84	-61.31
1559.86	-61.47
1559.88	-61.7
1559.9	-61.88
1559.92	-61.99
1559.94	-62.11
1559.96	-62.14
1559.98	-62.19
1560	-62.24
1560.02	-62.28
1560.04	-62.27
1560.06	-62.25
1560.08	-62.18
1560.1	-62.14
1560.12	-62.01
1560.14	-61.84
1560.16	-61.72
1560.18	-61.56
1560.2	-61.35
1560.22	-61.17
1560.24	-60.86
1560.26	-60.61
1560.28	-60.35
1560.3	-59.96
1560.32	-59.7
1560.34	-59.32
1560.36	-58.87
1560.38	-58.45
1560.4	-57.99
1560.42	-57.52
1560.44	-57.08
1560.46	-56.58
1560.48	-56.22
1560.5	-55.76
1560.52	-55.36
1560.54	-55.11
1560.56	-54.84
1560.58	-54.71
1560.6	-54.7
1560.62	-54.79
1560.64	-54.96
1560.66	-55.25
1560.68	-55.6
1560.7	-56
1560.72	-56.47
1560.74	-56.9
1560.76	-57.52
1560.78	-57.94
1560.8	-58.3
1560.82	-58.85
1560.84	-59.19
1560.86	-59.56
1560.88	-60.02
1560.9	-60.26
1560.92	-60.64
1560.94	-60.92
1560.96	-61.15
1560.98	-61.46
1561	-61.63
1561.02	-61.8
1561.04	-61.95
1561.06	-62.08
1561.08	-62.15
1561.1	-62.24
1561.12	-62.27
1561.14	-62.33
1561.16	-62.31
1561.18	-62.28
1561.2	-62.26
1561.22	-62.23
1561.24	-62.12
1561.26	-62.05
1561.28	-61.85
1561.3	-61.75
1561.32	-61.61
1561.34	-61.35
1561.36	-61.19
1561.38	-60.88
1561.4	-60.63
1561.42	-60.33
1561.44	-59.98
1561.46	-59.63
1561.48	-59.27
1561.5	-58.89
1561.52	-58.46
1561.54	-57.99
1561.56	-57.6
1561.58	-57.22
1561.6	-56.72
1561.62	-56.28
1561.64	-55.82
1561.66	-55.54
1561.68	-55.26
1561.7	-55
1561.72	-54.89
1561.74	-54.9
1561.76	-54.99
1561.78	-55.17
1561.8	-55.46
1561.82	-55.79
1561.84	-56.26
1561.86	-56.65
1561.88	-57.05
1561.9	-57.5
1561.92	-57.89
1561.94	-58.28
1561.96	-58.79
1561.98	-59.25
1562	-59.63
1562.02	-60
1562.04	-60.3
1562.06	-60.64
1562.08	-60.89
1562.1	-61.14
1562.12	-61.37
1562.14	-61.47
1562.16	-61.73
1562.18	-61.82
1562.2	-61.94
1562.22	-62.02
1562.24	-62.08
1562.26	-62.11
1562.28	-62.14
1562.3	-62.11
1562.32	-62.08
1562.34	-62.03
1562.36	-61.96
1562.38	-61.87
1562.4	-61.7
1562.42	-61.57
1562.44	-61.4
1562.46	-61.23
1562.48	-61.01
1562.5	-60.74
1562.52	-60.44
1562.54	-60.22
1562.56	-59.86
1562.58	-59.52
1562.6	-59.22
1562.62	-58.79
1562.64	-58.41
1562.66	-57.95
1562.68	-57.52
1562.7	-57.11
1562.72	-56.63
1562.74	-56.16
1562.76	-55.78
1562.78	-55.44
1562.8	-55.23
1562.82	-54.96
1562.84	-54.88
1562.86	-54.89
1562.88	-54.97
1562.9	-55.15
1562.92	-55.49
1562.94	-55.82
1562.96	-56.14
1562.98	-56.62
1563	-57.04
1563.02	-57.55
1563.04	-57.97
1563.06	-58.35
1563.08	-58.89
1563.1	-59.17
1563.12	-59.63
1563.14	-60.02
1563.16	-60.31
1563.18	-60.63
1563.2	-60.91
1563.22	-61.21
1563.24	-61.42
1563.26	-61.56
1563.28	-61.76
1563.3	-61.9
1563.32	-61.99
1563.34	-62.08
1563.36	-62.15
1563.38	-62.23
1563.4	-62.27
1563.42	-62.24
1563.44	-62.25
1563.46	-62.22
1563.48	-62.06
1563.5	-62.01
1563.52	-61.86
1563.54	-61.71
1563.56	-61.58
1563.58	-61.33
1563.6	-61.17
1563.62	-60.89
1563.64	-60.66
1563.66	-60.43
1563.68	-60.09
1563.7	-59.8
1563.72	-59.33
1563.74	-58.96
1563.76	-58.63
1563.78	-58.07
1563.8	-57.7
1563.82	-57.14
1563.84	-56.64
1563.86	-56.29
1563.88	-55.77
1563.9	-55.41
1563.92	-54.94
1563.94	-54.65
1563.96	-54.42
1563.98	-54.33
1564	-54.37
1564.02	-54.55
1564.04	-54.85
1564.06	-55.19
1564.08	-55.59
1564.1	-56.05
1564.12	-56.47
1564.14	-57
1564.16	-57.51
1564.18	-58.04
1564.2	-58.39
1564.22	-58.84
1564.24	-59.35
1564.26	-59.67
1564.28	-60.13
1564.3	-60.45
1564.32	-60.64
1564.34	-60.99
1564.36	-61.21
1564.38	-61.48
1564.4	-61.65
1564.42	-61.88
1564.44	-61.95
1564.46	-62.12
1564.48	-62.23
1564.5	-62.25
1564.52	-62.27
1564.54	-62.29
1564.56	-62.29
1564.58	-62.26
1564.6	-62.17
1564.62	-62.12
1564.64	-62.04
1564.66	-61.93
1564.68	-61.77
1564.7	-61.68
1564.72	-61.43
1564.74	-61.29
1564.76	-61
1564.78	-60.69
1564.8	-60.42
1564.82	-60.11
1564.84	-59.81
1564.86	-59.37
1564.88	-59
1564.9	-58.63
1564.92	-58.16
1564.94	-57.72
1564.96	-57.23
1564.98	-56.77
1565	-56.39
1565.02	-55.82
1565.04	-55.45
1565.06	-55.01
1565.08	-54.74
1565.1	-54.59
1565.12	-54.48
1565.14	-54.52
1565.16	-54.73
1565.18	-54.95
1565.2	-55.25
1565.22	-55.69
1565.24	-56.12
1565.26	-56.61
1565.28	-57.14
1565.3	-57.54
1565.32	-58.06
1565.34	-58.4
1565.36	-58.94
1565.38	-59.27
1565.4	-59.63
1565.42	-60.07
1565.44	-60.34
1565.46	-60.68
1565.48	-60.96
1565.5	-61.18
1565.52	-61.39
1565.54	-61.59
1565.56	-61.73
1565.58	-61.83
1565.6	-61.96
1565.62	-62.05
1565.64	-62.08
1565.66	-62.14
1565.68	-62.15
1565.7	-62.15
1565.72	-62.07
1565.74	-62.08
1565.76	-61.96
1565.78	-61.87
1565.8	-61.74
1565.82	-61.57
1565.84	-61.46
1565.86	-61.23
1565.88	-61
1565.9	-60.82
1565.92	-60.47
1565.94	-60.24
1565.96	-59.87
1565.98	-59.56
1566	-59.23
