Wavelength	Optical power
nm	dBm
600	0
602.304	-120
604.608	-120
606.913	-120
609.217	-120
611.521	-120
613.825	-120
616.129	-120
618.434	-76.77
620.738	-80.26
623.042	-120
625.346	-120
627.65	-74.39
629.955	-81.3
632.259	-120
634.563	-120
636.867	-120
639.171	-74.8
641.476	-79.19
643.78	-83.51
646.084	-81.19
648.388	-77.22
650.692	-75.18
652.997	-78.33
655.301	-77.54
657.605	-75.92
659.909	-77.46
662.213	-79.07
664.518	-77.79
666.822	-78.38
669.126	-80.05
671.43	-78.75
673.734	-120
676.039	-76.36
678.343	-85.42
680.647	-120
682.951	-85.33
685.255	-76.45
687.56	-75.89
689.864	-76.42
692.168	-77.2
694.472	-73.73
696.776	-75.05
699.081	-74.86
701.385	-75.69
703.689	-73.76
705.993	-74.92
708.297	-75.49
710.602	-74.5
712.906	-75.52
715.21	-78.34
717.514	-74.1
719.818	-74.83
722.123	-74.96
724.427	-75.28
726.731	-73.82
729.035	-74.91
731.339	-74.72
733.644	-75.03
735.948	-76.29
738.252	-76.25
740.556	-74.34
742.86	-74.06
745.165	-76.18
747.469	-75.42
749.773	-74.76
752.077	-75.13
754.381	-77.07
756.686	-76.03
758.99	-75.77
761.294	-74.42
763.598	-74.4
765.902	-74.63
768.207	-74.41
770.511	-75.41
772.815	-75.13
775.119	-73.65
777.423	-74.47
779.728	-76.33
782.032	-73.97
784.336	-73.44
786.64	-74.13
788.944	-75.45
791.249	-74.44
793.553	-74.99
795.857	-74.31
798.161	-75.01
800.465	-74.1
802.77	-73.1
805.074	-73.25
807.378	-75.11
809.682	-75.67
811.986	-75.89
814.291	-73.33
816.595	-73.76
818.899	-72.67
821.203	-72.99
823.507	-73.49
825.812	-74.18
828.116	-73.43
830.42	-73.84
832.724	-74.83
835.028	-73.8
837.333	-73.52
839.637	-74.56
841.941	-73.4
844.245	-73.55
846.549	-74.83
848.854	-74.98
851.158	-73.59
853.462	-73.79
855.766	-74.06
858.07	-73.37
860.375	-73.49
862.679	-73.38
864.983	-74.44
867.287	-73.04
869.591	-72.9
871.896	-73.11
874.2	-72.81
876.504	-73.23
878.808	-73.12
881.112	-73.09
883.417	-72.07
885.721	-72.39
888.025	-72.53
890.329	-72.38
892.633	-72.77
894.938	-73
897.242	-72.86
899.546	-73.12
901.85	-72.73
904.154	-72.83
906.459	-72.7
908.763	-72.45
911.067	-72.71
913.371	-72.7
915.675	-72.54
917.98	-72.44
920.284	-72.81
922.588	-72.49
924.892	-72.42
927.196	-72.56
929.501	-72.65
931.805	-72.54
934.109	-72.72
936.413	-72.84
938.717	-73.15
941.022	-73.03
943.326	-73.11
945.63	-73.29
947.934	-73.35
950.238	-73.44
952.543	-73.71
954.847	-73.82
957.151	-74.15
959.455	-74.27
961.759	-74.42
964.064	-74.41
966.368	-74.54
968.672	-74.54
970.976	-74.39
973.28	-74.5
975.585	-74.71
977.889	-74.47
980.193	-74.43
982.497	-74.39
984.801	-74.23
987.106	-74.03
989.41	-73.91
991.714	-73.94
994.018	-73.88
996.322	-73.6
998.627	-73.51
1000.93	-73.29
1003.23	-72.97
1005.54	-72.89
1007.84	-72.69
1010.15	-72.49
1012.45	-72.37
1014.76	-72.23
1017.06	-71.94
1019.36	-71.81
1021.67	-71.53
1023.97	-71.24
1026.28	-71.19
1028.58	-71.06
1030.89	-71.05
1033.19	-70.91
1035.49	-70.91
1037.8	-70.77
1040.1	-70.68
1042.41	-70.65
1044.71	-70.64
1047.01	-70.72
1049.32	-70.71
1051.62	-70.91
1053.93	-70.94
1056.23	-71.07
1058.54	-71.31
1060.84	-71.29
1063.14	-71.45
1065.45	-71.46
1067.75	-71.54
1070.06	-71.54
1072.36	-71.59
1074.67	-71.7
1076.97	-71.76
1079.27	-71.88
1081.58	-71.87
1083.88	-72.02
1086.19	-72.13
1088.49	-72.16
1090.79	-72.22
1093.1	-72.23
1095.4	-72.2
1097.71	-72.38
1100.01	-72.47
1102.32	-72.57
1104.62	-72.49
1106.92	-72.65
1109.23	-72.7
1111.53	-72.81
1113.84	-72.78
1116.14	-72.83
1118.44	-72.82
1120.75	-72.99
1123.05	-73.1
1125.36	-73.2
1127.66	-73.48
1129.97	-73.58
1132.27	-73.73
1134.57	-74.07
1136.88	-74.41
1139.18	-75.08
1141.49	-75.73
1143.79	-76.21
1146.1	-76.92
1148.4	-77.53
1150.7	-78.7
1153.01	-78.97
1155.31	-79.37
1157.62	-79.56
1159.92	-79.87
1162.22	-79.64
1164.53	-80.66
1166.83	-80.2
1169.14	-81.28
1171.44	-81.39
1173.75	-80.59
1176.05	-81.46
1178.35	-81.43
1180.66	-81.68
1182.96	-81.28
1185.27	-81.74
1187.57	-82.28
1189.88	-82.26
1192.18	-81.59
1194.48	-81.42
1196.79	-82.29
1199.09	-82.54
1201.4	-82.27
1203.7	-82.42
1206	-81.18
1208.31	-81.57
1210.61	-82.25
1212.92	-81.79
1215.22	-82.73
1217.53	-81.19
1219.83	-81.37
1222.13	-81.57
1224.44	-81.16
1226.74	-82.04
1229.05	-81.74
1231.35	-80.11
1233.65	-81.03
1235.96	-80.78
1238.26	-81.14
1240.57	-80.46
1242.87	-79.89
1245.18	-80.5
1247.48	-80.39
1249.78	-80.03
1252.09	-79.41
1254.39	-80.53
1256.7	-80.19
1259	-80.36
1261.31	-80.52
1263.61	-79.88
1265.91	-80.24
1268.22	-79.34
1270.52	-80.32
1272.83	-80.38
1275.13	-80.69
1277.43	-80.51
1279.74	-81.02
1282.04	-80.93
1284.35	-81.34
1286.65	-81.52
1288.96	-81.05
1291.26	-80.9
1293.56	-81.84
1295.87	-82.33
1298.17	-82.04
1300.48	-82.14
1302.78	-82.29
1305.09	-82.8
1307.39	-82.29
1309.69	-84.59
1312	-83.3
1314.3	-83.5
1316.61	-83.76
1318.91	-84.65
1321.21	-84.02
1323.52	-86.52
1325.82	-87.04
1328.13	-86.56
1330.43	-90.64
1332.74	-94.21
1335.04	-89.16
1337.34	-90.9
1339.65	-97.81
1341.95	-94.38
1344.26	-96.76
1346.56	-120
1348.86	-95.32
1351.17	-97.03
1353.47	-92.8
1355.78	-95.95
1358.08	-120
1360.39	-104.37
1362.69	-91.44
1364.99	-120
1367.3	-120
1369.6	-91.5
1371.91	-120
1374.21	-120
1376.52	-89
1378.82	-89.36
1381.12	-92.14
1383.43	-120
1385.73	-120
1388.04	-120
1390.34	-95.28
1392.64	-90.83
1394.95	-120
1397.25	-91.19
1399.56	-120
1401.86	-91.39
1404.17	-89.02
1406.47	-101.88
1408.77	-90.12
1411.08	-104.75
1413.38	-89.13
1415.69	-87.94
1417.99	-120
1420.3	-93.12
1422.6	-120
1424.9	-120
1427.21	-94.19
1429.51	-120
1431.82	-120
1434.12	-92.67
1436.42	-98.26
1438.73	-97.84
1441.03	-90.95
1443.34	-92.14
1445.64	-95.88
1447.95	-120
1450.25	-120
1452.55	-89.29
1454.86	-91.95
1457.16	-120
1459.47	-94.05
1461.77	-93.6
1464.07	-120
1466.38	-94.62
1468.68	-120
1470.99	-95.21
1473.29	-120
1475.6	-98.16
1477.9	-120
1480.2	-104.48
1482.51	-95.88
1484.81	-120
1487.12	-91.28
1489.42	-97.4
1491.73	-95.21
1494.03	-120
1496.33	-120
1498.64	-120
1500.94	-120
1503.25	-120
1505.55	-93.48
1507.85	-93.15
1510.16	-120
1512.46	-90.67
1514.77	-120
1517.07	-93.93
1519.38	-120
1521.68	-95.55
1523.98	-120
1526.29	-120
1528.59	-97.47
1530.9	-120
1533.2	-100.25
1535.51	-120
1537.81	-120
1540.11	-93.32
1542.42	-96.78
1544.72	-101.44
1547.03	-92.31
1549.33	-98.16
1551.63	-98.51
1553.94	-98.4
1556.24	-90.58
1558.55	-93.92
1560.85	-91.41
1563.16	-120
1565.46	-101.55
1567.76	-93.1
1570.07	-104.54
1572.37	-93.24
1574.68	-88.82
1576.98	-93.36
1579.28	-93.25
1581.59	-92.18
1583.89	-99.63
1586.2	-120
1588.5	-98.96
1590.81	-120
1593.11	-120
1595.41	-97.55
1597.72	-91.76
1600.02	-91.59
1602.33	-87.59
1604.63	-92.32
1606.94	-96.47
1609.24	-93.69
1611.54	-120
1613.85	-91.85
1616.15	-92.78
1618.46	-91.1
1620.76	-120
1623.06	-111.25
1625.37	-89.83
1627.67	-95.47
1629.98	-94.37
1632.28	-120
1634.59	-94.09
1636.89	-91.94
1639.19	-93.21
1641.5	-100.56
1643.8	-87.71
1646.11	-96.14
1648.41	-90.34
1650.72	-97.3
1653.02	-120
1655.32	-94.4
1657.63	-94.73
1659.93	-98.77
1662.24	-86.99
1664.54	-88.39
1666.84	-91.34
1669.15	-90.76
1671.45	-99.07
1673.76	-120
1676.06	-100.75
1678.37	-120
1680.67	-120
1682.97	-88.91
1685.28	-86.47
1687.58	-86.81
1689.89	-83.48
1692.19	-120
1694.49	-120
1696.8	-103.91
1699.1	-120
1701.41	-83.36
1703.71	-78.72
1706.02	-80.82
1708.32	-80.62
1710.62	-81.88
1712.93	-120
1715.23	-79.91
1717.54	-77.6
1719.84	-120
1722.15	-120
1724.45	-75.2
1726.75	-77.3
1729.06	-77.07
1731.36	-120
1733.67	-82.31
1735.97	-80.76
1738.27	-80.94
1740.58	-76.66
1742.88	-75.02
1745.19	-75.29
1747.49	-77.04
1749.8	-120
1752.1	-78.06
